Metasequoia Document
Format Text Ver 1.0

Scene {
	pos 81.7143 -346.5953 6053.3418
	lookat 87.7058 247.6719 -189.2258
	head 111.5481
	pich -0.1808
	bank 0.0000
	ortho 0
	zoom2 1.2390
	amb 0.250 0.250 0.250
	dirlights 1 {
		light {
			dir 0.408 0.408 0.816
			color 1.000 1.000 1.000
		}
	}
}
Material 14 {
	"mat1" col(1.000 1.000 1.000 1.000) dif(0.800) amb(0.600) emi(0.000) spc(0.000) power(5.00)
	"mat2" col(0.510 0.220 0.125 1.000) dif(0.800) amb(0.600) emi(0.000) spc(0.000) power(5.00)
	"mat3" col(1.000 0.918 0.192 1.000) dif(0.800) amb(0.600) emi(0.000) spc(0.000) power(5.00)
	"mat4" col(1.000 0.918 0.835 1.000) dif(0.800) amb(0.600) emi(0.000) spc(0.000) power(5.00)
	"mat5" col(0.247 0.380 1.000 1.000) dif(0.800) amb(0.600) emi(0.000) spc(0.000) power(5.00)
	"mat8" col(0.357 0.373 0.396 1.000) dif(0.800) amb(0.600) emi(0.000) spc(0.000) power(5.00)
	"mat6" col(0.776 0.776 0.776 1.000) dif(0.800) amb(0.600) emi(0.000) spc(0.000) power(5.00)
	"mat7" col(0.475 0.298 0.188 1.000) dif(0.800) amb(0.600) emi(0.000) spc(0.000) power(5.00)
	"mat9" col(0.416 0.192 0.098 1.000) dif(0.800) amb(0.600) emi(0.000) spc(0.000) power(5.00)
	"mat11" col(1.000 1.000 1.000 1.000) dif(0.800) amb(0.600) emi(0.000) spc(0.000) power(5.00) tex("data\TEXTURE\face000.png")
	"blinn7SG" col(0.647 0.647 0.647 1.000) dif(0.800) amb(0.600) emi(0.000) spc(0.160) power(5.00)
	"lambert3SG" col(0.040 0.000 0.000 1.000) dif(0.800) amb(0.600) emi(0.000) spc(0.000) power(5.00)
	"phong1SG" col(0.725 0.000 0.114 1.000) dif(0.800) amb(0.600) emi(0.260) spc(0.000) power(5.00)
	"mat10" col(1.000 1.000 1.000 1.000) dif(0.800) amb(0.600) emi(0.000) spc(0.000) power(5.00)
}
Object "èÒ" {
	visible 15
	locking 0
	shading 1
	facet 59.5
	color 0.898 0.498 0.698
	color_type 0
	vertex 1184 {
		81.8267 239.3273 159.1654
		82.3243 241.0067 159.1654
		82.2788 242.7575 159.1654
		81.6941 244.4086 159.1654
		80.6280 245.7983 159.1654
		79.1846 246.7904 159.1654
		77.5052 247.2881 159.1654
		75.7544 247.2425 159.1654
		74.1034 246.6578 159.1654
		72.7137 245.5917 159.1654
		71.7215 244.1483 159.1654
		71.2239 242.4689 159.1654
		71.2695 240.7181 159.1654
		71.8541 239.0671 159.1654
		72.9202 237.6774 159.1654
		74.3636 236.6852 159.1654
		76.0430 236.1876 159.1654
		77.7938 236.2332 159.1654
		79.4448 236.8178 159.1654
		80.8346 237.8839 159.1654
		76.7741 241.7378 159.1654
		81.8267 239.3273 55.3119
		80.8346 237.8839 55.3119
		79.4448 236.8178 55.3119
		77.7938 236.2332 55.3119
		76.0430 236.1876 55.3119
		74.3636 236.6852 55.3119
		72.9202 237.6774 55.3119
		71.8541 239.0671 55.3119
		71.2695 240.7181 55.3119
		71.2239 242.4689 55.3119
		71.7215 244.1483 55.3119
		72.7137 245.5917 55.3119
		74.1034 246.6578 55.3119
		75.7544 247.2425 55.3119
		77.5052 247.2881 55.3119
		79.1846 246.7904 55.3119
		80.6280 245.7983 55.3119
		81.6941 244.4085 55.3119
		82.2788 242.7575 55.3119
		82.3243 241.0067 55.3119
		81.8267 239.3273 -57.9903
		82.3243 241.0067 -57.9903
		82.2788 242.7575 -57.9903
		81.6941 244.4085 -57.9903
		80.6280 245.7982 -57.9903
		79.1846 246.7904 -57.9903
		77.5052 247.2880 -57.9903
		75.7544 247.2424 -57.9903
		74.1034 246.6578 -57.9903
		72.7137 245.5917 -57.9903
		71.7215 244.1483 -57.9903
		71.2239 242.4689 -57.9903
		71.2695 240.7181 -57.9903
		71.8541 239.0671 -57.9903
		72.9202 237.6773 -57.9903
		74.3636 236.6852 -57.9903
		76.0430 236.1875 -57.9903
		77.7938 236.2331 -57.9903
		79.4448 236.8178 -57.9903
		80.8346 237.8839 -57.9903
		80.8346 237.8839 -56.8103
		81.8267 239.3273 -56.8103
		81.8267 239.3273 54.1318
		80.8346 237.8839 54.1318
		79.4448 236.8178 -56.8103
		79.4448 236.8178 54.1318
		77.7938 236.2331 -56.8103
		77.7938 236.2332 54.1318
		76.0430 236.1875 -56.8103
		76.0430 236.1876 54.1318
		74.3636 236.6852 -56.8103
		74.3636 236.6852 54.1318
		72.9202 237.6773 -56.8103
		72.9202 237.6774 54.1318
		71.8541 239.0671 -56.8103
		71.8541 239.0671 54.1318
		71.2695 240.7181 -56.8103
		71.2695 240.7181 54.1318
		71.2239 242.4689 -56.8103
		71.2239 242.4689 54.1318
		71.7215 244.1483 -56.8103
		71.7215 244.1483 54.1318
		72.7137 245.5917 -56.8103
		72.7137 245.5917 54.1318
		74.1034 246.6578 -56.8103
		74.1034 246.6578 54.1318
		75.7544 247.2424 -56.8103
		75.7544 247.2425 54.1318
		77.5052 247.2880 -56.8103
		77.5052 247.2881 54.1318
		79.1846 246.7904 -56.8103
		79.1846 246.7904 54.1318
		80.6280 245.7982 -56.8103
		80.6280 245.7983 54.1318
		81.6941 244.4085 -56.8103
		81.6941 244.4085 54.1318
		82.2788 242.7575 -56.8103
		82.2788 242.7575 54.1318
		82.3243 241.0067 -56.8103
		82.3243 241.0067 54.1318
		80.6650 238.0449 -56.2015
		81.6157 239.4279 -56.2015
		81.6157 239.4279 53.5229
		80.6650 238.0449 53.5229
		79.3334 237.0232 -56.2015
		79.3334 237.0232 53.5229
		77.7513 236.4633 -56.2015
		77.7513 236.4633 53.5229
		76.0736 236.4194 -56.2015
		76.0736 236.4194 53.5229
		74.4642 236.8962 -56.2015
		74.4642 236.8962 53.5229
		73.0812 237.8469 -56.2015
		73.0812 237.8469 53.5229
		72.0595 239.1785 -56.2015
		72.0595 239.1786 53.5229
		71.4996 240.7606 -56.2015
		71.4996 240.7607 53.5229
		71.4557 242.4384 -56.2015
		71.4557 242.4384 53.5229
		71.9325 244.0477 -56.2015
		71.9325 244.0477 53.5229
		72.8832 245.4307 -56.2015
		72.8832 245.4307 53.5229
		74.2149 246.4524 -56.2015
		74.2149 246.4524 53.5229
		75.7969 247.0123 -56.2015
		75.7969 247.0123 53.5229
		77.4747 247.0562 -56.2015
		77.4747 247.0562 53.5229
		79.0840 246.5794 -56.2015
		79.0840 246.5794 53.5229
		80.4670 245.6287 -56.2015
		80.4670 245.6287 53.5229
		81.4887 244.2970 -56.2015
		81.4887 244.2971 53.5229
		82.0486 242.7150 -56.2015
		82.0486 242.7150 53.5229
		82.0925 241.0372 -56.2015
		82.0925 241.0372 53.5229
		81.8267 239.3272 -175.3420
		82.3243 241.0066 -175.3420
		82.2788 242.7575 -175.3420
		81.6941 244.4085 -175.3420
		80.6280 245.7982 -175.3420
		79.1846 246.7904 -175.3420
		77.5052 247.2880 -175.3420
		75.7544 247.2424 -175.3420
		74.1034 246.6578 -175.3420
		72.7137 245.5917 -175.3420
		71.7215 244.1483 -175.3420
		71.2239 242.4689 -175.3420
		71.2695 240.7181 -175.3420
		71.8541 239.0670 -175.3420
		72.9202 237.6773 -175.3420
		74.3636 236.6852 -175.3420
		76.0430 236.1875 -175.3420
		77.7938 236.2331 -175.3420
		79.4448 236.8177 -175.3420
		80.8346 237.8839 -175.3420
		71.2303 278.7219 213.5955
		71.2303 241.7378 176.6110
		71.2303 204.7537 213.5955
		71.2303 241.7378 250.5794
		72.1643 282.8480 213.5955
		72.1643 241.7378 172.4853
		72.1643 200.6276 213.5955
		72.1643 241.7378 254.7053
		81.3839 282.8480 213.5955
		81.3839 241.7378 172.4853
		81.3839 200.6276 213.5955
		81.3839 241.7378 254.7053
		82.3180 278.7219 213.5955
		82.3180 241.7378 176.6110
		82.3180 204.7537 213.5955
		82.3180 241.7378 250.5794
		74.7800 287.2668 213.5955
		74.7800 241.7378 168.0664
		78.7682 287.2668 213.5955
		78.7682 241.7378 168.0664
		74.7800 196.2089 213.5955
		78.7682 196.2089 213.5955
		74.7800 241.7378 259.1241
		78.7682 241.7378 259.1241
		79.2330 273.4258 213.5955
		79.2330 241.7378 181.9074
		74.3152 273.4258 213.5955
		74.3152 241.7378 181.9074
		79.2330 210.0499 213.5955
		74.3152 210.0499 213.5955
		79.2330 241.7378 245.2831
		74.3152 241.7378 245.2831
		75.1256 246.1174 264.3369
		72.2160 262.3528 166.3568
		71.6345 248.6430 163.0672
		71.5227 232.8079 163.2517
		71.5227 217.8049 168.3206
		71.5227 205.1023 177.7772
		71.5227 195.9439 190.6968
		71.5958 191.2260 205.8137
		72.0245 191.4106 221.6489
		72.6583 196.4794 236.6517
		73.2330 205.9363 249.3541
		73.7075 218.8555 258.5126
		74.1868 233.9725 263.2305
		75.1256 246.5558 267.0253
		72.2160 264.1820 163.0084
		71.6345 249.5182 159.4843
		71.5227 232.5502 159.6820
		71.5227 216.4738 165.1133
		71.5227 202.8628 175.2469
		71.5227 193.0491 189.0904
		71.5958 187.9937 205.2888
		72.0245 188.1914 222.2568
		72.6583 193.6230 238.3333
		73.2330 203.7563 251.9443
		73.7075 217.5998 261.7578
		74.1868 233.7982 266.8130
		78.4226 246.5558 267.0253
		81.3322 264.1820 163.0084
		81.9137 249.5182 159.4843
		82.0255 232.5502 159.6820
		82.0255 216.4738 165.1133
		82.0255 202.8628 175.2469
		82.0255 193.0491 189.0904
		81.9524 187.9937 205.2888
		81.5237 188.1914 222.2568
		80.8899 193.6230 238.3333
		80.3153 203.7563 251.9443
		79.8407 217.5998 261.7578
		79.3614 233.7982 266.8130
		78.4226 246.1174 264.3369
		81.3322 262.3528 166.3568
		81.9137 248.6430 163.0672
		82.0255 232.8079 163.2517
		82.0255 217.8049 168.3206
		82.0255 205.1023 177.7772
		82.0255 195.9439 190.6968
		81.9524 191.2260 205.8137
		81.5237 191.4106 221.6489
		80.8899 196.4794 236.6517
		80.3153 205.9363 249.3541
		79.8407 218.8555 258.5126
		79.3614 233.9725 263.2305
		73.6997 267.4863 167.0904
		73.6997 269.0150 164.6516
		79.8485 267.4863 167.0904
		79.8485 269.0150 164.6516
		80.5882 198.1557 245.5360
		76.7741 203.3598 252.4152
		80.0709 210.2932 257.3940
		76.7741 217.3715 262.3477
		79.6077 225.5008 264.9210
		76.7741 233.7665 267.4647
		79.0434 241.8618 267.4096
		76.7741 247.7712 267.3654
		82.9893 263.2674 164.6825
		81.6585 256.2457 164.6905
		83.7825 249.0806 161.2758
		82.0144 240.7181 162.5382
		83.9351 232.6790 161.4670
		82.0255 225.1074 165.1976
		83.9351 217.1394 166.7171
		82.0255 211.0826 172.5505
		83.9351 203.9825 176.5121
		82.0255 200.0163 183.8776
		83.9351 194.4967 189.8935
		82.0183 192.9922 198.0701
		83.8353 189.6100 205.5512
		81.7809 190.6973 213.7383
		83.2506 189.8010 221.9526
		81.2137 193.3563 229.3491
		82.3866 195.0513 237.4924
		80.5882 200.7094 243.3738
		81.6027 204.8463 250.6489
		80.0709 212.0365 254.4402
		80.9558 218.2278 260.1351
		79.6077 226.2289 261.4644
		80.3025 233.8855 265.0219
		79.0434 241.5288 263.8999
		78.8155 247.4524 265.6682
		76.7741 262.0203 166.9656
		76.7741 248.4837 163.7185
		76.7741 232.8546 163.9007
		76.7741 218.0468 168.9035
		76.7741 205.5096 178.2373
		76.7741 196.4705 190.9886
		76.7741 191.8138 205.9091
		76.7741 191.9958 221.5381
		76.7741 196.9987 236.3459
		76.7741 206.3325 248.8832
		76.7741 219.0837 257.9223
		76.7741 234.0042 262.5790
		76.7741 247.1335 263.9707
		72.9330 268.5305 165.8817
		76.7741 267.5606 167.4218
		80.6152 268.5305 165.8817
		76.7741 269.5002 164.3418
		72.6356 265.9226 167.3473
		72.6356 267.8791 164.1545
		80.9127 265.9226 167.3473
		80.9127 267.8791 164.1545
		71.8897 256.2457 164.6905
		70.5589 263.2674 164.6825
		71.8897 257.6621 161.2234
		69.7658 249.0806 161.2758
		71.5338 240.7181 162.5382
		71.5338 241.0264 158.9178
		69.6132 232.6790 161.4667
		71.5227 225.1074 165.1976
		71.5227 224.2990 161.7670
		69.6132 217.1394 166.7171
		71.5227 211.0826 172.5505
		71.5227 209.2709 169.6460
		69.6132 203.9825 176.5121
		71.5227 200.0163 183.8776
		71.5227 197.4129 181.7838
		69.6132 194.4967 189.8935
		71.5299 192.9922 198.0701
		71.5299 189.8861 196.9911
		69.7129 189.6100 205.5512
		71.7674 190.6973 213.7383
		71.7674 187.4272 213.7805
		70.2976 189.8010 221.9526
		72.3345 193.3563 229.3491
		72.3345 190.2767 230.5080
		71.1616 195.0513 237.4924
		72.9600 200.7094 243.3738
		72.9600 198.1557 245.5360
		71.9455 204.8463 250.6489
		73.4773 212.0365 254.4402
		73.4773 210.2932 257.3940
		72.5925 218.2278 260.1351
		73.9405 226.2289 261.4644
		73.9405 225.5008 264.9210
		73.2458 233.8855 265.0219
		74.5048 241.5288 263.8999
		74.5048 241.8618 267.4096
		74.7328 247.4524 265.6682
		76.7741 264.5145 162.3996
		81.6585 257.6621 161.2234
		76.7741 249.6772 158.8329
		82.0144 241.0264 158.9178
		76.7741 232.5035 159.0331
		82.0255 224.2990 161.7670
		76.7741 216.2320 164.5303
		82.0255 209.2709 169.6460
		76.7741 202.4555 174.7868
		82.0255 197.4129 181.7838
		76.7741 192.5229 188.7982
		82.0183 189.8861 196.9911
		76.7741 187.4060 205.1935
		81.7809 187.4272 213.7805
		76.7741 187.6062 222.3674
		81.2137 190.2767 230.5080
		76.7741 193.1036 238.6385
		70.1133 256.9540 162.9568
		69.6284 240.8724 160.7279
		69.6132 224.7032 163.4823
		69.6132 210.1766 171.0983
		69.6132 198.7147 182.8307
		69.6232 191.4390 197.5307
		69.9470 189.0621 213.7594
		70.7201 191.8165 229.9284
		71.5733 199.4326 244.4549
		72.2783 211.1646 255.9171
		72.9102 225.8647 263.1926
		73.6833 241.7965 265.6534
		76.7741 257.9198 160.5933
		76.7741 241.0826 158.2595
		76.7741 224.1519 161.1434
		76.7741 208.9415 169.1182
		76.7741 196.9397 181.4030
		76.7741 189.3214 196.7952
		76.7741 186.8326 213.7881
		76.7741 189.7165 230.7188
		76.7741 197.6914 245.9293
		76.7741 209.9762 257.9310
		76.7741 225.3684 265.5492
		76.7741 242.0300 268.0481
		83.4350 256.9540 162.9568
		83.9198 240.8724 160.7281
		83.9351 224.7032 163.4823
		83.9351 210.1766 171.0983
		83.9351 198.7147 182.8307
		83.9251 191.4390 197.5307
		83.6012 189.0621 213.7594
		82.8281 191.8165 229.9284
		81.9749 199.4326 244.4549
		81.2699 211.1646 255.9171
		80.6380 225.8647 263.1926
		79.8649 241.7965 265.6534
		76.7741 255.9883 165.3206
		76.7741 240.6620 163.1964
		76.7741 225.2544 165.8214
		76.7741 211.4120 173.0787
		76.7741 200.4898 184.2585
		76.7741 193.5568 198.2663
		76.7741 191.2920 213.7309
		76.7741 193.9165 229.1384
		76.7741 201.1739 242.9809
		76.7741 212.3537 253.9030
		76.7741 226.3615 260.8361
		76.7741 241.5630 263.2588
		76.7741 249.4114 265.6451
		76.7741 269.0217 165.9006
		71.1327 266.9262 165.7519
		76.7741 265.5907 167.9303
		82.4155 266.9262 165.7519
		76.7741 268.2620 163.5735
		70.3751 252.8116 162.9958
		70.7624 259.9426 164.8200
		70.7624 260.8402 162.9641
		70.3751 253.4416 161.0700
		70.0905 236.7544 161.9202
		70.1475 244.8255 161.8263
		70.1475 245.1489 159.8555
		70.0905 236.7678 159.9534
		70.0905 221.1506 165.8592
		70.0905 228.7978 163.2758
		70.0905 228.5056 161.3606
		70.0905 220.5649 164.0433
		70.0905 207.5278 174.4273
		70.0905 214.0025 169.6069
		70.0905 213.1420 167.9350
		70.0905 206.4189 172.9403
		70.0905 197.2194 186.7855
		70.0905 201.8875 180.2007
		70.0905 200.5620 178.9354
		70.0905 195.7146 185.7734
		70.1277 191.2344 201.7246
		70.0905 193.6390 194.0194
		70.0905 191.9969 193.2848
		70.1277 189.5000 201.2860
		70.5544 190.1588 217.7817
		70.2767 190.0649 209.7104
		70.2767 188.2854 209.5787
		70.5544 188.3830 217.9597
		71.3309 194.0978 233.3856
		70.9211 191.5143 225.7384
		70.9211 189.7904 226.2220
		71.3309 192.4731 234.1627
		72.0984 202.6657 247.0082
		71.7323 197.8454 240.5338
		71.7323 196.3648 241.5852
		72.0984 201.3702 248.3083
		72.7256 215.0241 257.3165
		72.4262 208.4391 252.6487
		72.4262 207.3652 254.1652
		72.7256 214.2032 259.0127
		73.3214 229.9632 263.3017
		73.0181 222.2579 260.8969
		73.0181 221.7144 262.7303
		73.3214 229.7155 265.2272
		74.2671 244.6971 264.8370
		73.6480 237.9490 264.4713
		73.6480 238.0082 266.4419
		74.2671 244.9301 266.5606
		74.0317 253.8613 159.7863
		74.1976 261.4390 161.7267
		79.3506 261.4390 161.7267
		79.5166 253.8613 159.7863
		73.9096 236.7766 158.6418
		73.9341 245.3643 158.5419
		79.6141 245.3643 158.5419
		79.6386 236.7766 158.6418
		73.9096 220.1743 162.8328
		73.9096 228.3108 160.0840
		79.6386 228.3108 160.0840
		79.6386 220.1743 162.8328
		73.9096 205.6797 171.9492
		73.9096 212.5685 166.8205
		79.6386 212.5685 166.8205
		79.6386 205.6797 171.9492
		73.9096 194.7116 185.0984
		73.9096 199.6783 178.0920
		79.6386 199.6783 178.0920
		79.6386 194.7116 185.0984
		73.9257 188.3435 200.9936
		73.9096 190.9021 192.7951
		79.6386 190.9021 192.7951
		79.6225 188.3435 200.9936
		74.1087 187.1992 218.0781
		73.9894 187.0992 209.4906
		79.5588 187.0992 209.4906
		79.4396 187.1992 218.0781
		74.4411 191.3900 234.6805
		74.2657 188.6412 226.5441
		79.2825 188.6412 226.5441
		79.1071 191.3900 234.6805
		74.7703 200.5065 249.1750
		74.6132 195.3777 242.2863
		78.9350 195.3777 242.2863
		78.7779 200.5065 249.1750
		75.0391 213.6558 260.1433
		74.9107 206.6491 255.1766
		78.6375 206.6491 255.1766
		78.5091 213.6558 260.1433
		75.2943 229.5507 266.5111
		75.1645 221.3522 263.9528
		78.3837 221.3522 263.9528
		78.2539 229.5507 266.5111
		75.6944 245.1075 267.7157
		75.4344 238.0477 267.7556
		78.1138 238.0477 267.7556
		77.8541 245.1075 267.7157
		83.1731 253.4416 161.0700
		82.7858 260.8402 162.9641
		82.7858 259.9426 164.8200
		83.1731 252.8116 162.9958
		83.4578 236.7678 159.9534
		83.4008 245.1489 159.8555
		83.4008 244.8255 161.8263
		83.4578 236.7544 161.9202
		83.4578 220.5649 164.0433
		83.4578 228.5056 161.3606
		83.4578 228.7978 163.2758
		83.4578 221.1506 165.8592
		83.4578 206.4189 172.9403
		83.4578 213.1420 167.9350
		83.4578 214.0025 169.6069
		83.4578 207.5278 174.4273
		83.4578 195.7146 185.7734
		83.4578 200.5620 178.9354
		83.4578 201.8875 180.2007
		83.4578 197.2194 186.7855
		83.4205 189.5000 201.2860
		83.4578 191.9969 193.2848
		83.4578 193.6390 194.0194
		83.4205 191.2344 201.7246
		82.9938 188.3830 217.9597
		83.2715 188.2854 209.5787
		83.2715 190.0649 209.7104
		82.9938 190.1588 217.7817
		82.2173 192.4731 234.1627
		82.6271 189.7904 226.2220
		82.6271 191.5143 225.7384
		82.2173 194.0978 233.3856
		81.4498 201.3702 248.3083
		81.8159 196.3648 241.5852
		81.8159 197.8454 240.5338
		81.4498 202.6657 247.0082
		80.8226 214.2032 259.0127
		81.1220 207.3652 254.1652
		81.1220 208.4391 252.6487
		80.8226 215.0241 257.3165
		80.2269 229.7155 265.2272
		80.5301 221.7144 262.7303
		80.5301 222.2579 260.8969
		80.2269 229.9632 263.3017
		79.2811 244.9301 266.5606
		79.9002 238.0082 266.4419
		79.9002 237.9490 264.4713
		79.2811 244.6971 264.8370
		79.5166 252.3918 164.2796
		79.3506 259.3437 166.0572
		74.1976 259.3437 166.0572
		74.0317 252.3918 164.2796
		79.6386 236.7455 163.2318
		79.6141 244.6101 163.1400
		73.9341 244.6101 163.1400
		73.9096 236.7455 163.2315
		79.6386 221.5412 167.0698
		79.6386 228.9927 164.5523
		73.9096 228.9927 164.5523
		73.9096 221.5412 167.0698
		79.6386 208.2670 175.4184
		79.6386 214.5760 170.7216
		73.9096 214.5760 170.7216
		73.9096 208.2670 175.4184
		79.6386 198.2227 187.4606
		79.6386 202.7713 181.0440
		73.9096 202.7713 181.0440
		73.9096 198.2227 187.4606
		79.6225 192.3908 202.0171
		79.6386 194.7341 194.5089
		73.9096 194.7341 194.5089
		73.9257 192.3908 202.0171
		79.4396 191.3428 217.6631
		79.5588 191.2510 209.7985
		73.9894 191.2510 209.7985
		74.1087 191.3428 217.6631
		79.1071 195.1808 232.8674
		79.2825 192.6633 225.4162
		74.2657 192.6633 225.4162
		74.4411 195.1808 232.8674
		78.7779 203.5294 246.1415
		78.9350 198.8326 239.8328
		74.6132 198.8326 239.8328
		74.7703 203.5294 246.1415
		78.5091 215.5715 256.1862
		78.6375 209.1550 251.6376
		74.9107 209.1550 251.6376
		75.0391 215.5715 256.1862
		78.2539 230.1281 262.0178
		78.3837 222.6202 259.6746
		75.1645 222.6202 259.6746
		75.2943 230.1281 262.0178
		77.8539 244.5201 263.6818
		78.1138 237.9095 263.1575
		75.4344 237.9095 263.1575
		75.6941 244.5201 263.6818
		75.7450 248.6261 266.5176
		77.8033 248.6261 266.5176
		77.8033 248.2883 264.7955
		75.7450 248.2883 264.7955
		74.8320 269.2752 165.1100
		74.8320 268.2895 166.6729
		78.7162 268.2895 166.6729
		78.7162 269.2752 165.1100
		71.1724 265.6749 164.3015
		71.1724 264.6908 166.1546
		72.1279 267.3815 166.6378
		72.1279 268.3562 165.0747
		74.3733 264.0344 167.3902
		79.1749 264.0344 167.3902
		78.7682 266.7260 167.6856
		74.7800 266.7260 167.6856
		82.3758 264.6908 166.1546
		82.3758 265.6749 164.3015
		81.4203 268.3562 165.0747
		81.4203 267.3815 166.6378
		79.1749 266.3312 163.0661
		74.3733 266.3312 163.0661
		74.7800 269.0117 164.0268
		78.7682 269.0117 164.0268
		70.5575 256.5676 163.9024
		70.3329 260.3912 163.8921
		70.5575 257.3402 162.0113
		69.9181 253.1266 162.0331
		70.1046 240.7882 161.7154
		69.6740 244.9873 160.8407
		70.1046 240.9564 159.7404
		69.6132 236.7611 160.9366
		70.0905 224.9236 164.4181
		69.6132 228.6516 162.3181
		70.0905 224.4827 162.5468
		69.6132 220.8576 164.9512
		70.0905 210.6709 171.8904
		69.6132 213.5721 168.7712
		70.0905 209.6826 170.3062
		69.6132 206.9733 173.6837
		70.0905 199.4248 183.4017
		69.6132 201.2248 179.5678
		70.0905 198.0047 182.2596
		69.6132 196.4672 186.2793
		70.0999 192.2863 197.8248
		69.6132 192.8181 193.6522
		70.0999 190.5919 197.2364
		69.6529 190.3673 201.5053
		70.4021 189.9539 213.7480
		69.8125 189.1750 209.6446
		70.4021 188.1703 213.7711
		70.1102 189.2709 217.8709
		71.1238 192.6566 229.6124
		70.5030 190.6522 225.9799
		71.1238 190.9767 230.2444
		70.9420 193.2855 233.7740
		71.9200 200.1292 243.8653
		71.3720 197.1051 241.0594
		71.9200 198.7361 245.0447
		71.7646 202.0179 247.6583
		72.5780 211.6403 255.1115
		72.1157 207.9021 253.4067
		72.5780 210.6893 256.7228
		72.4362 214.6135 258.1646
		73.1676 226.0634 262.2501
		72.7498 221.9860 261.8134
		73.1676 225.6662 264.1353
		73.0748 229.8395 264.2645
		73.8882 241.6558 264.6973
		73.4245 237.9787 265.4565
		73.8882 241.8360 266.6113
		74.0937 245.0160 265.6966
		74.1098 257.8553 160.7509
		76.7741 261.5138 161.5721
		79.4384 257.8553 160.7509
		76.7741 253.9138 159.6259
		73.9157 241.0684 158.4238
		76.7741 245.3913 158.3776
		79.6325 241.0684 158.4238
		76.7741 236.7775 158.4781
		73.9096 224.1889 161.2995
		76.7741 228.2866 159.9244
		79.6386 224.1889 161.2995
		76.7741 220.1254 162.6817
		73.9096 209.0238 169.2502
		76.7741 212.4968 166.6812
		79.6386 209.0238 169.2502
		76.7741 205.5871 171.8253
		73.9096 197.0579 181.4981
		76.7741 199.5679 177.9865
		79.6386 197.0579 181.4981
		76.7741 194.5862 185.0141
		73.9138 189.4627 196.8441
		76.7741 190.7654 192.7340
		79.6344 189.4627 196.8441
		76.7741 188.1992 200.9568
		74.0433 186.9813 213.7861
		76.7741 186.9507 209.4794
		79.5049 186.9813 213.7861
		76.7741 187.0511 218.0929
		74.3525 189.8566 230.6660
		76.7741 188.4978 226.5844
		79.1958 189.8566 230.6660
		76.7741 191.2547 234.7454
		74.6936 197.8074 245.8310
		76.7741 195.2545 242.3739
		78.8547 197.8074 245.8310
		76.7741 200.3986 249.2835
		74.9757 210.0554 257.7971
		76.7741 206.5596 255.3029
		78.5725 210.0554 257.7971
		76.7741 213.5871 260.2845
		75.2284 225.4015 265.3921
		76.7741 221.3069 264.1053
		78.3198 225.4015 265.3921
		76.7741 229.5301 266.6714
		75.5359 241.9616 267.8885
		76.7741 238.0527 267.9202
		78.0123 241.9616 267.8885
		76.7741 245.3404 267.8596
		82.9907 257.3402 162.0113
		83.2153 260.3912 163.8921
		82.9907 256.5676 163.9024
		83.6301 253.1266 162.0331
		83.4436 240.9564 159.7406
		83.8742 244.9873 160.8410
		83.4436 240.7882 161.7157
		83.9351 236.7611 160.9366
		83.4578 224.4827 162.5468
		83.9351 228.6516 162.3183
		83.4578 224.9236 164.4181
		83.9351 220.8576 164.9516
		83.4578 209.6826 170.3062
		83.9351 213.5721 168.7712
		83.4578 210.6709 171.8904
		83.9351 206.9733 173.6837
		83.4578 198.0047 182.2596
		83.9351 201.2248 179.5678
		83.4578 199.4248 183.4017
		83.9351 196.4672 186.2793
		83.4483 190.5919 197.2364
		83.9351 192.8181 193.6522
		83.4483 192.2863 197.8248
		83.8953 190.3673 201.5053
		83.1461 188.1703 213.7711
		83.7358 189.1750 209.6446
		83.1461 189.9539 213.7480
		83.4380 189.2709 217.8709
		82.4244 190.9767 230.2444
		83.0452 190.6522 225.9799
		82.4244 192.6566 229.6124
		82.6062 193.2855 233.7740
		81.6282 198.7361 245.0447
		82.1762 197.1051 241.0594
		81.6282 200.1292 243.8653
		81.7836 202.0179 247.6583
		80.9702 210.6893 256.7228
		81.4325 207.9021 253.4067
		80.9702 211.6403 255.1115
		81.1120 214.6135 258.1646
		80.3806 225.6662 264.1353
		80.7984 221.9860 261.8134
		80.3806 226.0634 262.2501
		80.4734 229.8395 264.2645
		79.6600 241.8360 266.6113
		80.1237 237.9787 265.4565
		79.6600 241.6558 264.6973
		79.4546 245.0160 265.6966
		79.4384 256.0525 165.1631
		76.7741 259.2690 166.2117
		74.1098 256.0525 165.1631
		76.7741 252.3393 164.4402
		79.6325 240.6761 163.0320
		76.7741 244.5831 163.3044
		73.9157 240.6761 163.0320
		76.7741 236.7444 163.3955
		79.6386 225.2178 165.6654
		76.7741 229.0169 164.7119
		73.9096 225.2178 165.6654
		76.7741 221.5901 167.2211
		79.6386 211.3298 172.9468
		76.7741 214.6477 170.8610
		73.9096 211.3298 172.9468
		76.7741 208.3596 175.5424
		79.6386 200.3714 184.1632
		76.7741 202.8817 181.1494
		73.9096 200.3714 184.1632
		76.7741 198.3481 187.5448
		79.6344 193.4156 198.2170
		76.7741 194.8708 194.5700
		73.9138 193.4156 198.2170
		76.7741 192.5355 202.0536
		79.5049 191.1432 213.7327
		76.7741 191.3995 209.8097
		74.0433 191.1432 213.7327
		76.7741 191.4907 217.6484
		79.1958 193.7764 229.1910
		76.7741 192.8070 225.3760
		74.3525 193.7764 229.1910
		76.7741 195.3162 232.8027
		78.8547 201.0577 243.0791
		76.7741 198.9561 239.7451
		74.6936 201.0577 243.0791
		76.7741 203.6375 246.0331
		78.5725 212.2744 254.0373
		76.7741 209.2445 251.5111
		74.9757 212.2744 254.0373
		76.7741 215.6399 256.0449
		78.3198 226.3284 260.9932
		76.7741 222.6655 259.5220
		75.2284 226.3284 260.9932
		76.7741 230.1486 261.8575
		78.0123 241.5302 263.4196
		76.7741 237.9048 262.9933
		75.5359 241.5302 263.4196
		76.7741 244.6921 263.5331
		76.7741 249.1101 266.5761
		77.8711 248.9199 265.6509
		76.7741 248.7298 264.7257
		75.6771 248.9199 265.6509
		74.6963 268.8983 165.8959
		76.7741 268.3679 166.7354
		78.8519 268.8983 165.8959
		76.7741 269.4287 165.0563
		70.7721 265.1828 165.2279
		71.5080 266.3802 166.6220
		71.7990 267.9197 165.8580
		71.5080 267.4469 164.8810
		76.7741 263.9524 167.5445
		79.0317 265.6677 167.7841
		76.7741 266.6929 167.8204
		74.5165 265.6677 167.7841
		82.7761 265.1828 165.2279
		82.0402 267.4469 164.8810
		81.7492 267.9197 165.8580
		82.0402 266.3802 166.6220
		76.7741 266.4132 162.9115
		74.5165 268.1596 163.7185
		76.7741 269.1465 163.8960
		79.0317 268.1596 163.7185
		71.7465 252.5492 163.7983
		72.0506 259.5684 165.5931
		70.9731 262.7687 165.5956
		70.9731 263.7661 163.7692
		72.0506 261.2144 162.1907
		71.7465 253.7040 160.2678
		70.2328 249.3191 160.2986
		70.2328 248.8418 162.2530
		71.5227 236.7489 162.7397
		71.5675 244.6910 162.6472
		71.5675 245.2834 159.0345
		71.5227 236.7733 159.1335
		70.0905 232.6086 160.4932
		70.0905 232.7493 162.4403
		71.5227 221.3947 166.6158
		71.5227 228.9196 164.0736
		71.5227 228.3839 160.5627
		71.5227 220.3208 163.2868
		70.0905 216.7763 165.8425
		70.0905 217.5025 167.5916
		71.5227 207.9899 175.0467
		71.5227 214.3608 170.3035
		71.5227 212.7837 167.2383
		71.5227 205.9569 172.3210
		70.0905 203.3718 175.8221
		70.0905 204.5933 177.2021
		71.5227 197.8463 187.2073
		71.5227 202.4396 180.7278
		71.5227 200.0097 178.4083
		71.5227 195.0877 185.3517
		70.0905 193.7072 189.4555
		70.0905 195.2862 190.3314
		71.5519 191.9572 201.9073
		71.5227 194.3235 194.3255
		71.5227 191.3128 192.9788
		71.5519 188.7772 201.1031
		70.1836 188.7285 205.4081
		70.1836 190.4916 205.6945
		71.8872 190.8988 217.7076
		71.6689 190.8062 209.7654
		71.6689 187.5440 209.5236
		71.8872 187.6432 218.0337
		70.7293 188.9231 222.1186
		70.7293 190.6790 221.7870
		72.4971 194.7747 233.0618
		72.1755 192.2324 225.5369
		72.1755 189.0721 226.4231
		72.4971 191.7962 234.4862
		71.5358 194.2721 237.9509
		71.5358 195.8303 237.0338
		73.1004 203.2055 246.4665
		72.8126 198.4626 240.0957
		72.8126 195.7480 242.0232
		73.1004 200.8304 248.8500
		72.2675 204.2516 251.3553
		72.2675 205.4406 249.9427
		73.5930 215.3663 256.6100
		73.3581 208.8865 252.0167
		73.3581 206.9177 254.7971
		73.5930 213.8610 259.7191
		72.8713 217.8853 261.0201
		72.8713 218.5700 259.2498
		74.0614 230.0663 262.4993
		73.8229 222.4842 260.1329
		73.8229 221.4881 263.4943
		74.0614 229.6124 266.0298
		73.4809 233.8380 265.9987
		73.4809 233.9330 264.0446
		74.7975 244.3922 264.1197
		74.3177 237.9245 263.6503
		74.3177 238.0329 267.2631
		74.7975 244.8303 267.2825
		74.8609 247.2180 266.4697
		74.8609 246.9495 264.8751
		74.2880 264.4314 162.5515
		79.2602 264.4314 162.5515
		81.4976 261.2144 162.1907
		81.8017 253.7040 160.2678
		79.5774 249.6374 158.9960
		73.9708 249.6374 158.9960
		81.9807 245.2834 159.0345
		82.0255 236.7733 159.1338
		79.6386 232.5152 159.1953
		73.9096 232.5152 159.1953
		82.0255 228.3839 160.5627
		82.0255 220.3208 163.2868
		79.6386 216.2923 164.6760
		73.9096 216.2923 164.6760
		82.0255 212.7837 167.2383
		82.0255 205.9569 172.3210
		79.6386 202.5572 174.9018
		73.9096 202.5572 174.9018
		82.0255 200.0097 178.4083
		82.0255 195.0877 185.3517
		79.6386 192.6544 188.8713
		73.9096 192.6544 188.8713
		82.0255 191.3128 192.9788
		81.9963 188.7772 201.1031
		79.5986 187.5531 205.2173
		73.9496 187.5531 205.2173
		81.8793 187.5440 209.5236
		81.6610 187.6432 218.0337
		79.3648 187.7528 222.3397
		74.1834 187.7528 222.3397
		81.3728 189.0724 226.4231
		81.0511 191.7962 234.4862
		79.0192 193.2335 238.5625
		74.5290 193.2335 238.5625
		80.7356 195.7480 242.0232
		80.4479 200.8304 248.8500
		78.7057 203.4591 252.2974
		74.8426 203.4591 252.2974
		80.1902 206.9177 254.7971
		79.9553 213.8610 259.7191
		78.4468 217.4285 262.2000
		75.1014 217.4285 262.2000
		79.7253 221.4881 263.4943
		79.4868 229.6124 266.0298
		78.1855 233.7746 267.3018
		75.3627 233.7746 267.3018
		79.2305 238.0329 267.2631
		78.7507 244.8303 267.2825
		77.7479 247.3681 267.2530
		75.8003 247.3681 267.2530
		82.5751 263.7661 163.7692
		82.5751 262.7687 165.5956
		81.4976 259.5684 165.5931
		81.8017 252.5492 163.7983
		83.3154 248.8418 162.2530
		83.3154 249.3191 160.2986
		81.9807 244.6910 162.6474
		82.0255 236.7489 162.7397
		83.4578 232.7493 162.4406
		83.4578 232.6089 160.4935
		82.0255 228.9196 164.0736
		82.0255 221.3947 166.6158
		83.4578 217.5025 167.5916
		83.4578 216.7763 165.8425
		82.0255 214.3608 170.3035
		82.0255 207.9899 175.0467
		83.4578 204.5933 177.2021
		83.4578 203.3718 175.8221
		82.0255 202.4399 180.7278
		82.0255 197.8463 187.2073
		83.4578 195.2862 190.3314
		83.4578 193.7072 189.4555
		82.0255 194.3235 194.3255
		81.9963 191.9572 201.9073
		83.3646 190.4916 205.6945
		83.3646 188.7285 205.4081
		81.8793 190.8062 209.7654
		81.6610 190.8988 217.7076
		82.8189 190.6790 221.7870
		82.8189 188.9231 222.1186
		81.3728 192.2324 225.5369
		81.0511 194.7747 233.0618
		82.0124 195.8303 237.0338
		82.0124 194.2721 237.9509
		80.7356 198.4626 240.0957
		80.4479 203.2055 246.4665
		81.2808 205.4406 249.9427
		81.2808 204.2516 251.3553
		80.1902 208.8865 252.0167
		79.9553 215.3663 256.6100
		80.6769 218.5700 259.2498
		80.6769 217.8853 261.0201
		79.7253 222.4842 260.1329
		79.4868 230.0663 262.4993
		80.0673 233.9330 264.0446
		80.0673 233.8380 265.9987
		79.2305 237.9245 263.6503
		78.7507 244.3922 264.1197
		78.6873 246.9495 264.8751
		78.6873 247.2180 266.4697
		79.2602 262.1034 166.8133
		74.2880 262.1034 166.8133
		73.9708 248.5235 163.5557
		79.5774 248.5235 163.5557
		73.9096 232.8430 163.7386
		79.6386 232.8430 163.7386
		73.9096 217.9862 168.7578
		79.6386 217.9862 168.7578
		73.9096 205.4078 178.1222
		79.6386 205.4078 178.1222
		73.9096 196.3387 190.9157
		79.6386 196.3387 190.9157
		73.9496 191.6670 205.8852
		79.5986 191.6670 205.8852
		74.1834 191.8496 221.5659
		79.3648 191.8496 221.5659
		74.5290 196.8689 236.4225
		79.0192 196.8689 236.4225
		74.8426 206.2335 249.0010
		78.7057 206.2335 249.0010
		75.1014 219.0267 258.0699
		78.4468 219.0267 258.0699
		75.3627 233.9964 262.7415
		78.1855 233.9964 262.7415
		75.8003 246.7994 264.0916
		77.7479 246.7994 264.0916
		73.1849 268.8919 165.1550
		73.1849 267.9842 166.6014
		74.9549 267.5363 167.3123
		78.5933 267.5363 167.3123
		80.3633 267.9842 166.6014
		80.3633 268.8919 165.1550
		78.5933 269.3398 164.4442
		74.9549 269.3398 164.4442
		72.3728 264.2805 166.9269
		73.1198 266.9234 167.2887
		73.1198 268.7128 164.4200
		72.3728 266.0852 163.5293
		81.1754 264.2805 166.9269
		80.4284 266.9234 167.2887
		81.1754 266.0852 163.5293
		80.4284 268.7128 164.4200
		76.7741 241.7378 229.9017
		88.2955 233.3673 221.1003
		72.3731 228.1937 221.1003
		62.5331 241.7378 221.1003
		72.3731 255.2819 221.1003
		88.2955 250.1084 221.1003
		91.0151 241.7378 206.8593
		81.1751 228.1937 206.8593
		65.2527 233.3673 206.8593
		65.2527 250.1084 206.8593
		81.1751 255.2819 206.8593
		76.7741 241.7378 198.0579
		76.7741 241.7378 -202.9273
		87.6038 240.3111 -187.3027
		87.5149 243.7274 -187.3027
		86.3742 246.9489 -187.3027
		84.2940 249.6604 -187.3027
		81.4776 251.5964 -187.3027
		78.2008 252.5675 -187.3027
		74.7845 252.4785 -187.3027
		71.5630 251.3379 -187.3027
		68.8514 249.2576 -187.3027
		66.9155 246.4412 -187.3027
		65.9444 243.1645 -187.3027
		66.0333 239.7481 -187.3027
		67.1740 236.5267 -187.3027
		69.2542 233.8151 -187.3027
		72.0706 231.8791 -187.3027
		75.3474 230.9081 -187.3027
		78.7637 230.9970 -187.3027
		81.9852 232.1376 -187.3027
		84.6968 234.2179 -187.3027
		86.6328 237.0343 -187.3027
		67.7158 246.0595 -186.8519
		66.8237 243.0485 -186.8519
		66.9054 239.9097 -186.8519
		67.9535 236.9498 -186.8519
		72.4526 232.6795 -186.8519
		75.4633 231.7874 -186.8519
		78.6022 231.8691 -186.8519
		81.5624 232.9171 -186.8519
		84.0538 234.8284 -186.8519
		85.8324 237.4163 -186.8519
		86.7245 240.4270 -186.8519
		86.6428 243.5659 -186.8519
		85.5947 246.5260 -186.8519
		83.6835 249.0174 -186.8519
		81.0956 250.7961 -186.8519
		78.0849 251.6885 -186.8519
		74.9460 251.6067 -186.8519
		71.9859 250.5584 -186.8519
		69.4944 248.6471 -186.8519
		73.5440 234.9671 -178.7745
		75.7944 234.3002 -178.7745
		78.1405 234.3614 -178.7745
		80.3531 235.1448 -178.7745
		82.2151 236.5734 -178.7745
		83.5448 238.5077 -178.7745
		84.2117 240.7581 -178.7745
		84.1505 243.1041 -178.7745
		83.3671 245.3167 -178.7745
		81.9385 247.1788 -178.7745
		80.0042 248.5084 -178.7745
		77.7538 249.1753 -178.7745
		75.4077 249.1142 -178.7745
		73.1952 248.3308 -178.7745
		71.3331 246.9021 -178.7745
		70.0035 244.9678 -178.7745
		69.3365 242.7174 -178.7745
		69.3977 240.3714 -178.7745
		69.8647 234.4581 -186.8519
		70.1811 238.1588 -178.7745
		71.6097 236.2968 -178.7745
		65.5477 247.0937 -191.0112
		64.4418 243.3624 -191.0112
		64.5433 239.4721 -191.0112
		65.8424 235.8036 -191.0112
		68.2112 232.7159 -191.0112
		71.4182 230.5114 -191.0112
		75.1495 229.4057 -191.0112
		79.0398 229.5069 -191.0112
		82.7083 230.8060 -191.0112
		85.7960 233.1749 -191.0112
		88.0005 236.3819 -191.0112
		89.1064 240.1131 -191.0112
		89.0049 244.0035 -191.0112
		87.7058 247.6719 -191.0112
		85.3370 250.7597 -191.0112
		82.1300 252.9642 -191.0112
		78.3987 254.0701 -191.0112
		74.5084 253.9686 -191.0112
		70.8400 252.6698 -191.0112
		67.7522 250.3010 -191.0112
		71.6042 258.9826 230.8403
		72.4751 260.9067 232.7640
		74.4809 256.5132 228.3708
		74.9143 262.9669 234.8245
		79.0673 256.5132 228.3708
		78.6339 262.9669 234.8245
		81.9441 258.9826 230.8403
		81.0731 260.9067 232.7640
		71.6042 224.4930 230.8403
		72.4751 222.5690 232.7640
		74.4809 226.9625 228.3708
		74.9143 220.5087 234.8245
		79.0673 226.9625 228.3708
		78.6339 220.5087 234.8245
		81.9441 224.4930 230.8403
		81.0731 222.5690 232.7640
		71.6042 224.4930 196.3504
		72.4751 222.5690 194.4265
		74.4809 226.9625 198.8201
		74.9143 220.5087 192.3664
		79.0673 226.9625 198.8201
		78.6339 220.5087 192.3664
		81.9441 224.4930 196.3504
		81.0731 222.5690 194.4265
		71.6042 258.9826 196.3504
		72.4751 260.9067 194.4265
		74.4809 256.5132 198.8201
		74.9143 262.9669 192.3664
		79.0673 256.5132 198.8201
		78.6339 262.9669 192.3664
		81.9441 258.9826 196.3504
		81.0731 260.9067 194.4265
	}
	face 1208 {
		3 V(0 20 1) M(13) UV(0.64860 0.89203 0.50000 0.83750 0.62641 0.93559)
		3 V(1 20 2) M(13) UV(0.62641 0.93559 0.50000 0.83750 0.59184 0.97016)
		3 V(2 20 3) M(13) UV(0.59184 0.97016 0.50000 0.83750 0.54828 0.99235)
		3 V(3 20 4) M(13) UV(0.54828 0.99235 0.50000 0.83750 0.50000 1.00000)
		3 V(4 20 5) M(13) UV(0.50000 1.00000 0.50000 0.83750 0.45172 0.99235)
		3 V(5 20 6) M(13) UV(0.45172 0.99235 0.50000 0.83750 0.40816 0.97016)
		3 V(6 20 7) M(13) UV(0.40816 0.97016 0.50000 0.83750 0.37359 0.93559)
		3 V(7 20 8) M(13) UV(0.37359 0.93559 0.50000 0.83750 0.35140 0.89203)
		3 V(8 20 9) M(13) UV(0.35140 0.89203 0.50000 0.83750 0.34375 0.84375)
		3 V(9 20 10) M(13) UV(0.34375 0.84375 0.50000 0.83750 0.35140 0.79547)
		3 V(10 20 11) M(13) UV(0.35140 0.79547 0.50000 0.83750 0.37359 0.75191)
		3 V(11 20 12) M(13) UV(0.37359 0.75191 0.50000 0.83750 0.40816 0.71734)
		3 V(12 20 13) M(13) UV(0.40816 0.71734 0.50000 0.83750 0.45172 0.69515)
		3 V(13 20 14) M(13) UV(0.45172 0.69515 0.50000 0.83750 0.50000 0.68750)
		3 V(14 20 15) M(13) UV(0.50000 0.68750 0.50000 0.83750 0.54828 0.69515)
		3 V(15 20 16) M(13) UV(0.54828 0.69515 0.50000 0.83750 0.59184 0.71734)
		3 V(16 20 17) M(13) UV(0.59184 0.71734 0.50000 0.83750 0.62641 0.75191)
		3 V(17 20 18) M(13) UV(0.62641 0.75191 0.50000 0.83750 0.64860 0.79547)
		3 V(18 20 19) M(13) UV(0.64860 0.79547 0.50000 0.83750 0.65625 0.84375)
		3 V(19 20 0) M(13) UV(0.65625 0.84375 0.50000 0.83750 0.64860 0.89203)
		4 V(101 104 103 102) M(11) UV(0.61250 0.58501 0.61250 0.62715 0.62500 0.62715 0.62500 0.58501)
		4 V(105 106 104 101) M(11) UV(0.60000 0.58501 0.60000 0.62715 0.61250 0.62715 0.61250 0.58501)
		4 V(107 108 106 105) M(11) UV(0.58750 0.58501 0.58750 0.62715 0.60000 0.62715 0.60000 0.58501)
		4 V(109 110 108 107) M(11) UV(0.57500 0.58501 0.57500 0.62715 0.58750 0.62715 0.58750 0.58501)
		4 V(111 112 110 109) M(11) UV(0.56250 0.58501 0.56250 0.62715 0.57500 0.62715 0.57500 0.58501)
		4 V(113 114 112 111) M(11) UV(0.55000 0.58501 0.55000 0.62715 0.56250 0.62715 0.56250 0.58501)
		4 V(115 116 114 113) M(11) UV(0.53750 0.58501 0.53750 0.62715 0.55000 0.62715 0.55000 0.58501)
		4 V(117 118 116 115) M(11) UV(0.52500 0.58501 0.52500 0.62715 0.53750 0.62715 0.53750 0.58501)
		4 V(119 120 118 117) M(11) UV(0.51250 0.58501 0.51250 0.62715 0.52500 0.62715 0.52500 0.58501)
		4 V(121 122 120 119) M(11) UV(0.50000 0.58501 0.50000 0.62715 0.51250 0.62715 0.51250 0.58501)
		4 V(123 124 122 121) M(11) UV(0.48750 0.58501 0.48750 0.62715 0.50000 0.62715 0.50000 0.58501)
		4 V(125 126 124 123) M(11) UV(0.47500 0.58501 0.47500 0.62715 0.48750 0.62715 0.48750 0.58501)
		4 V(127 128 126 125) M(11) UV(0.46250 0.58501 0.46250 0.62715 0.47500 0.62715 0.47500 0.58501)
		4 V(129 130 128 127) M(11) UV(0.45000 0.58501 0.45000 0.62715 0.46250 0.62715 0.46250 0.58501)
		4 V(131 132 130 129) M(11) UV(0.43750 0.58501 0.43750 0.62715 0.45000 0.62715 0.45000 0.58501)
		4 V(133 134 132 131) M(11) UV(0.42500 0.58501 0.42500 0.62715 0.43750 0.62715 0.43750 0.58501)
		4 V(135 136 134 133) M(11) UV(0.41250 0.58501 0.41250 0.62715 0.42500 0.62715 0.42500 0.58501)
		4 V(137 138 136 135) M(11) UV(0.40000 0.58501 0.40000 0.62715 0.41250 0.62715 0.41250 0.58501)
		4 V(139 140 138 137) M(11) UV(0.38750 0.58501 0.38750 0.62715 0.40000 0.62715 0.40000 0.58501)
		4 V(102 103 140 139) M(11) UV(0.37500 0.58501 0.37500 0.62715 0.38750 0.62715 0.38750 0.58501)
		4 V(22 19 0 21) M(13) UV(0.61250 0.62715 0.61250 0.68844 0.62500 0.68844 0.62500 0.62715)
		4 V(23 18 19 22) M(13) UV(0.60000 0.62715 0.60000 0.68844 0.61250 0.68844 0.61250 0.62715)
		4 V(24 17 18 23) M(13) UV(0.58750 0.62715 0.58750 0.68844 0.60000 0.68844 0.60000 0.62715)
		4 V(25 16 17 24) M(13) UV(0.57500 0.62715 0.57500 0.68844 0.58750 0.68844 0.58750 0.62715)
		4 V(26 15 16 25) M(13) UV(0.56250 0.62715 0.56250 0.68844 0.57500 0.68844 0.57500 0.62715)
		4 V(27 14 15 26) M(13) UV(0.55000 0.62715 0.55000 0.68844 0.56250 0.68844 0.56250 0.62715)
		4 V(28 13 14 27) M(13) UV(0.53750 0.62715 0.53750 0.68844 0.55000 0.68844 0.55000 0.62715)
		4 V(29 12 13 28) M(13) UV(0.52500 0.62715 0.52500 0.68844 0.53750 0.68844 0.53750 0.62715)
		4 V(30 11 12 29) M(13) UV(0.51250 0.62715 0.51250 0.68844 0.52500 0.68844 0.52500 0.62715)
		4 V(31 10 11 30) M(13) UV(0.50000 0.62715 0.50000 0.68844 0.51250 0.68844 0.51250 0.62715)
		4 V(32 9 10 31) M(13) UV(0.48750 0.62715 0.48750 0.68844 0.50000 0.68844 0.50000 0.62715)
		4 V(33 8 9 32) M(13) UV(0.47500 0.62715 0.47500 0.68844 0.48750 0.68844 0.48750 0.62715)
		4 V(34 7 8 33) M(13) UV(0.46250 0.62715 0.46250 0.68844 0.47500 0.68844 0.47500 0.62715)
		4 V(35 6 7 34) M(13) UV(0.45000 0.62715 0.45000 0.68844 0.46250 0.68844 0.46250 0.62715)
		4 V(36 5 6 35) M(13) UV(0.43750 0.62715 0.43750 0.68844 0.45000 0.68844 0.45000 0.62715)
		4 V(37 4 5 36) M(13) UV(0.42500 0.62715 0.42500 0.68844 0.43750 0.68844 0.43750 0.62715)
		4 V(38 3 4 37) M(13) UV(0.41250 0.62715 0.41250 0.68844 0.42500 0.68844 0.42500 0.62715)
		4 V(39 2 3 38) M(13) UV(0.40000 0.62715 0.40000 0.68844 0.41250 0.68844 0.41250 0.62715)
		4 V(40 1 2 39) M(13) UV(0.38750 0.62715 0.38750 0.68844 0.40000 0.68844 0.40000 0.62715)
		4 V(21 0 1 40) M(13) UV(0.37500 0.62715 0.37500 0.68844 0.38750 0.68844 0.38750 0.62715)
		4 V(141 41 42 142) M(13) UV(0.37500 0.41631 0.37500 0.58501 0.38750 0.58501 0.38750 0.41631)
		4 V(142 42 43 143) M(13) UV(0.38750 0.41631 0.38750 0.58501 0.40000 0.58501 0.40000 0.41631)
		4 V(143 43 44 144) M(13) UV(0.40000 0.41631 0.40000 0.58501 0.41250 0.58501 0.41250 0.41631)
		4 V(144 44 45 145) M(13) UV(0.41250 0.41631 0.41250 0.58501 0.42500 0.58501 0.42500 0.41631)
		4 V(145 45 46 146) M(13) UV(0.42500 0.41631 0.42500 0.58501 0.43750 0.58501 0.43750 0.41631)
		4 V(146 46 47 147) M(13) UV(0.43750 0.41631 0.43750 0.58501 0.45000 0.58501 0.45000 0.41631)
		4 V(147 47 48 148) M(13) UV(0.45000 0.41631 0.45000 0.58501 0.46250 0.58501 0.46250 0.41631)
		4 V(148 48 49 149) M(13) UV(0.46250 0.41631 0.46250 0.58501 0.47500 0.58501 0.47500 0.41631)
		4 V(149 49 50 150) M(13) UV(0.47500 0.41631 0.47500 0.58501 0.48750 0.58501 0.48750 0.41631)
		4 V(150 50 51 151) M(13) UV(0.48750 0.41631 0.48750 0.58501 0.50000 0.58501 0.50000 0.41631)
		4 V(151 51 52 152) M(13) UV(0.50000 0.41631 0.50000 0.58501 0.51250 0.58501 0.51250 0.41631)
		4 V(152 52 53 153) M(13) UV(0.51250 0.41631 0.51250 0.58501 0.52500 0.58501 0.52500 0.41631)
		4 V(153 53 54 154) M(13) UV(0.52500 0.41631 0.52500 0.58501 0.53750 0.58501 0.53750 0.41631)
		4 V(154 54 55 155) M(13) UV(0.53750 0.41631 0.53750 0.58501 0.55000 0.58501 0.55000 0.41631)
		4 V(155 55 56 156) M(13) UV(0.55000 0.41631 0.55000 0.58501 0.56250 0.58501 0.56250 0.41631)
		4 V(156 56 57 157) M(13) UV(0.56250 0.41631 0.56250 0.58501 0.57500 0.58501 0.57500 0.41631)
		4 V(157 57 58 158) M(13) UV(0.57500 0.41631 0.57500 0.58501 0.58750 0.58501 0.58750 0.41631)
		4 V(158 58 59 159) M(13) UV(0.58750 0.41631 0.58750 0.58501 0.60000 0.58501 0.60000 0.41631)
		4 V(159 59 60 160) M(13) UV(0.60000 0.41631 0.60000 0.58501 0.61250 0.58501 0.61250 0.41631)
		4 V(160 60 41 141) M(13) UV(0.61250 0.41631 0.61250 0.58501 0.62500 0.58501 0.62500 0.41631)
		4 V(60 61 62 41) M(13) UV(0.61250 0.58501 0.61250 0.58501 0.62500 0.58501 0.62500 0.58501)
		4 V(21 63 64 22) M(13) UV(0.62500 0.62715 0.62500 0.62715 0.61250 0.62715 0.61250 0.62715)
		4 V(59 65 61 60) M(13) UV(0.60000 0.58501 0.60000 0.58501 0.61250 0.58501 0.61250 0.58501)
		4 V(22 64 66 23) M(13) UV(0.61250 0.62715 0.61250 0.62715 0.60000 0.62715 0.60000 0.62715)
		4 V(58 67 65 59) M(13) UV(0.58750 0.58501 0.58750 0.58501 0.60000 0.58501 0.60000 0.58501)
		4 V(23 66 68 24) M(13) UV(0.60000 0.62715 0.60000 0.62715 0.58750 0.62715 0.58750 0.62715)
		4 V(57 69 67 58) M(13) UV(0.57500 0.58501 0.57500 0.58501 0.58750 0.58501 0.58750 0.58501)
		4 V(24 68 70 25) M(13) UV(0.58750 0.62715 0.58750 0.62715 0.57500 0.62715 0.57500 0.62715)
		4 V(56 71 69 57) M(13) UV(0.56250 0.58501 0.56250 0.58501 0.57500 0.58501 0.57500 0.58501)
		4 V(25 70 72 26) M(13) UV(0.57500 0.62715 0.57500 0.62715 0.56250 0.62715 0.56250 0.62715)
		4 V(55 73 71 56) M(13) UV(0.55000 0.58501 0.55000 0.58501 0.56250 0.58501 0.56250 0.58501)
		4 V(26 72 74 27) M(13) UV(0.56250 0.62715 0.56250 0.62715 0.55000 0.62715 0.55000 0.62715)
		4 V(54 75 73 55) M(13) UV(0.53750 0.58501 0.53750 0.58501 0.55000 0.58501 0.55000 0.58501)
		4 V(27 74 76 28) M(13) UV(0.55000 0.62715 0.55000 0.62715 0.53750 0.62715 0.53750 0.62715)
		4 V(53 77 75 54) M(13) UV(0.52500 0.58501 0.52500 0.58501 0.53750 0.58501 0.53750 0.58501)
		4 V(28 76 78 29) M(13) UV(0.53750 0.62715 0.53750 0.62715 0.52500 0.62715 0.52500 0.62715)
		4 V(52 79 77 53) M(13) UV(0.51250 0.58501 0.51250 0.58501 0.52500 0.58501 0.52500 0.58501)
		4 V(29 78 80 30) M(13) UV(0.52500 0.62715 0.52500 0.62715 0.51250 0.62715 0.51250 0.62715)
		4 V(51 81 79 52) M(13) UV(0.50000 0.58501 0.50000 0.58501 0.51250 0.58501 0.51250 0.58501)
		4 V(30 80 82 31) M(13) UV(0.51250 0.62715 0.51250 0.62715 0.50000 0.62715 0.50000 0.62715)
		4 V(50 83 81 51) M(13) UV(0.48750 0.58501 0.48750 0.58501 0.50000 0.58501 0.50000 0.58501)
		4 V(31 82 84 32) M(13) UV(0.50000 0.62715 0.50000 0.62715 0.48750 0.62715 0.48750 0.62715)
		4 V(49 85 83 50) M(13) UV(0.47500 0.58501 0.47500 0.58501 0.48750 0.58501 0.48750 0.58501)
		4 V(32 84 86 33) M(13) UV(0.48750 0.62715 0.48750 0.62715 0.47500 0.62715 0.47500 0.62715)
		4 V(48 87 85 49) M(13) UV(0.46250 0.58501 0.46250 0.58501 0.47500 0.58501 0.47500 0.58501)
		4 V(33 86 88 34) M(13) UV(0.47500 0.62715 0.47500 0.62715 0.46250 0.62715 0.46250 0.62715)
		4 V(47 89 87 48) M(13) UV(0.45000 0.58501 0.45000 0.58501 0.46250 0.58501 0.46250 0.58501)
		4 V(34 88 90 35) M(13) UV(0.46250 0.62715 0.46250 0.62715 0.45000 0.62715 0.45000 0.62715)
		4 V(46 91 89 47) M(13) UV(0.43750 0.58501 0.43750 0.58501 0.45000 0.58501 0.45000 0.58501)
		4 V(35 90 92 36) M(13) UV(0.45000 0.62715 0.45000 0.62715 0.43750 0.62715 0.43750 0.62715)
		4 V(45 93 91 46) M(13) UV(0.42500 0.58501 0.42500 0.58501 0.43750 0.58501 0.43750 0.58501)
		4 V(36 92 94 37) M(13) UV(0.43750 0.62715 0.43750 0.62715 0.42500 0.62715 0.42500 0.62715)
		4 V(44 95 93 45) M(13) UV(0.41250 0.58501 0.41250 0.58501 0.42500 0.58501 0.42500 0.58501)
		4 V(37 94 96 38) M(13) UV(0.42500 0.62715 0.42500 0.62715 0.41250 0.62715 0.41250 0.62715)
		4 V(43 97 95 44) M(13) UV(0.40000 0.58501 0.40000 0.58501 0.41250 0.58501 0.41250 0.58501)
		4 V(38 96 98 39) M(13) UV(0.41250 0.62715 0.41250 0.62715 0.40000 0.62715 0.40000 0.62715)
		4 V(42 99 97 43) M(13) UV(0.38750 0.58501 0.38750 0.58501 0.40000 0.58501 0.40000 0.58501)
		4 V(39 98 100 40) M(13) UV(0.40000 0.62715 0.40000 0.62715 0.38750 0.62715 0.38750 0.62715)
		4 V(41 62 99 42) M(13) UV(0.37500 0.58501 0.37500 0.58501 0.38750 0.58501 0.38750 0.58501)
		4 V(40 100 63 21) M(13) UV(0.38750 0.62715 0.38750 0.62715 0.37500 0.62715 0.37500 0.62715)
		4 V(61 101 102 62) M(13) UV(0.61250 0.58501 0.61250 0.58501 0.62500 0.58501 0.62500 0.58501)
		4 V(63 103 104 64) M(13) UV(0.62500 0.62715 0.62500 0.62715 0.61250 0.62715 0.61250 0.62715)
		4 V(65 105 101 61) M(13) UV(0.60000 0.58501 0.60000 0.58501 0.61250 0.58501 0.61250 0.58501)
		4 V(64 104 106 66) M(13) UV(0.61250 0.62715 0.61250 0.62715 0.60000 0.62715 0.60000 0.62715)
		4 V(67 107 105 65) M(13) UV(0.58750 0.58501 0.58750 0.58501 0.60000 0.58501 0.60000 0.58501)
		4 V(66 106 108 68) M(13) UV(0.60000 0.62715 0.60000 0.62715 0.58750 0.62715 0.58750 0.62715)
		4 V(69 109 107 67) M(13) UV(0.57500 0.58501 0.57500 0.58501 0.58750 0.58501 0.58750 0.58501)
		4 V(68 108 110 70) M(13) UV(0.58750 0.62715 0.58750 0.62715 0.57500 0.62715 0.57500 0.62715)
		4 V(71 111 109 69) M(13) UV(0.56250 0.58501 0.56250 0.58501 0.57500 0.58501 0.57500 0.58501)
		4 V(70 110 112 72) M(13) UV(0.57500 0.62715 0.57500 0.62715 0.56250 0.62715 0.56250 0.62715)
		4 V(73 113 111 71) M(13) UV(0.55000 0.58501 0.55000 0.58501 0.56250 0.58501 0.56250 0.58501)
		4 V(72 112 114 74) M(13) UV(0.56250 0.62715 0.56250 0.62715 0.55000 0.62715 0.55000 0.62715)
		4 V(75 115 113 73) M(13) UV(0.53750 0.58501 0.53750 0.58501 0.55000 0.58501 0.55000 0.58501)
		4 V(74 114 116 76) M(13) UV(0.55000 0.62715 0.55000 0.62715 0.53750 0.62715 0.53750 0.62715)
		4 V(77 117 115 75) M(13) UV(0.52500 0.58501 0.52500 0.58501 0.53750 0.58501 0.53750 0.58501)
		4 V(76 116 118 78) M(13) UV(0.53750 0.62715 0.53750 0.62715 0.52500 0.62715 0.52500 0.62715)
		4 V(79 119 117 77) M(13) UV(0.51250 0.58501 0.51250 0.58501 0.52500 0.58501 0.52500 0.58501)
		4 V(78 118 120 80) M(13) UV(0.52500 0.62715 0.52500 0.62715 0.51250 0.62715 0.51250 0.62715)
		4 V(81 121 119 79) M(13) UV(0.50000 0.58501 0.50000 0.58501 0.51250 0.58501 0.51250 0.58501)
		4 V(80 120 122 82) M(13) UV(0.51250 0.62715 0.51250 0.62715 0.50000 0.62715 0.50000 0.62715)
		4 V(83 123 121 81) M(13) UV(0.48750 0.58501 0.48750 0.58501 0.50000 0.58501 0.50000 0.58501)
		4 V(82 122 124 84) M(13) UV(0.50000 0.62715 0.50000 0.62715 0.48750 0.62715 0.48750 0.62715)
		4 V(85 125 123 83) M(13) UV(0.47500 0.58501 0.47500 0.58501 0.48750 0.58501 0.48750 0.58501)
		4 V(84 124 126 86) M(13) UV(0.48750 0.62715 0.48750 0.62715 0.47500 0.62715 0.47500 0.62715)
		4 V(87 127 125 85) M(13) UV(0.46250 0.58501 0.46250 0.58501 0.47500 0.58501 0.47500 0.58501)
		4 V(86 126 128 88) M(13) UV(0.47500 0.62715 0.47500 0.62715 0.46250 0.62715 0.46250 0.62715)
		4 V(89 129 127 87) M(13) UV(0.45000 0.58501 0.45000 0.58501 0.46250 0.58501 0.46250 0.58501)
		4 V(88 128 130 90) M(13) UV(0.46250 0.62715 0.46250 0.62715 0.45000 0.62715 0.45000 0.62715)
		4 V(91 131 129 89) M(13) UV(0.43750 0.58501 0.43750 0.58501 0.45000 0.58501 0.45000 0.58501)
		4 V(90 130 132 92) M(13) UV(0.45000 0.62715 0.45000 0.62715 0.43750 0.62715 0.43750 0.62715)
		4 V(93 133 131 91) M(13) UV(0.42500 0.58501 0.42500 0.58501 0.43750 0.58501 0.43750 0.58501)
		4 V(92 132 134 94) M(13) UV(0.43750 0.62715 0.43750 0.62715 0.42500 0.62715 0.42500 0.62715)
		4 V(95 135 133 93) M(13) UV(0.41250 0.58501 0.41250 0.58501 0.42500 0.58501 0.42500 0.58501)
		4 V(94 134 136 96) M(13) UV(0.42500 0.62715 0.42500 0.62715 0.41250 0.62715 0.41250 0.62715)
		4 V(97 137 135 95) M(13) UV(0.40000 0.58501 0.40000 0.58501 0.41250 0.58501 0.41250 0.58501)
		4 V(96 136 138 98) M(13) UV(0.41250 0.62715 0.41250 0.62715 0.40000 0.62715 0.40000 0.62715)
		4 V(99 139 137 97) M(13) UV(0.38750 0.58501 0.38750 0.58501 0.40000 0.58501 0.40000 0.58501)
		4 V(98 138 140 100) M(13) UV(0.40000 0.62715 0.40000 0.62715 0.38750 0.62715 0.38750 0.62715)
		4 V(62 102 139 99) M(13) UV(0.37500 0.58501 0.37500 0.58501 0.38750 0.58501 0.38750 0.58501)
		4 V(100 140 103 63) M(13) UV(0.38750 0.62715 0.38750 0.62715 0.37500 0.62715 0.37500 0.62715)
		4 V(195 850 411 843) M(13) UV(0.45000 1.00000 0.45000 0.93750 0.43750 0.93750 0.43750 1.00000)
		4 V(843 411 627 303) M(13) UV(0.43750 1.00000 0.43750 0.93750 0.42500 0.93750 0.42500 1.00000)
		4 V(411 630 357 627) M(13) UV(0.43750 0.93750 0.43750 0.87500 0.42500 0.87500 0.42500 0.93750)
		4 V(850 306 630 411) M(13) UV(0.45000 0.93750 0.45000 0.87500 0.43750 0.87500 0.43750 0.93750)
		4 V(303 627 412 844) M(13) UV(0.42500 1.00000 0.42500 0.93750 0.41250 0.93750 0.41250 1.00000)
		4 V(844 412 845 194) M(13) UV(0.41250 1.00000 0.41250 0.93750 0.40000 0.93750 0.40000 1.00000)
		4 V(412 628 304 845) M(13) UV(0.41250 0.93750 0.41250 0.87500 0.40000 0.87500 0.40000 0.93750)
		4 V(627 357 628 412) M(13) UV(0.42500 0.93750 0.42500 0.87500 0.41250 0.87500 0.41250 0.93750)
		4 V(357 629 413 628) M(13) UV(0.42500 0.87500 0.42500 0.81250 0.41250 0.81250 0.41250 0.87500)
		4 V(628 413 846 304) M(13) UV(0.41250 0.87500 0.41250 0.81250 0.40000 0.81250 0.40000 0.87500)
		4 V(413 847 207 846) M(13) UV(0.41250 0.81250 0.41289 0.75000 0.40000 0.75000 0.40000 0.81250)
		4 V(629 305 847 413) M(13) UV(0.42500 0.81250 0.42510 0.75000 0.41289 0.75000 0.41250 0.81250)
		4 V(306 849 414 630) M(13) UV(0.45000 0.87500 0.45000 0.81250 0.43750 0.81250 0.43750 0.87500)
		4 V(630 414 629 357) M(13) UV(0.43750 0.87500 0.43750 0.81250 0.42500 0.81250 0.42500 0.87500)
		4 V(414 848 305 629) M(13) UV(0.43750 0.81250 0.43750 0.75000 0.42510 0.75000 0.42500 0.81250)
		4 V(849 208 848 414) M(13) UV(0.45000 0.81250 0.45000 0.75000 0.43750 0.75000 0.43750 0.81250)
		4 V(196 856 415 851) M(13) UV(0.50000 1.00000 0.50000 0.93750 0.48750 0.93750 0.48750 1.00000)
		4 V(851 415 631 307) M(13) UV(0.48750 1.00000 0.48750 0.93750 0.47500 0.93750 0.47500 1.00000)
		4 V(415 634 358 631) M(13) UV(0.48750 0.93750 0.48750 0.87500 0.47500 0.87500 0.47500 0.93750)
		4 V(856 309 634 415) M(13) UV(0.50000 0.93750 0.50000 0.87500 0.48750 0.87500 0.48750 0.93750)
		4 V(307 631 416 852) M(13) UV(0.47500 1.00000 0.47500 0.93750 0.46250 0.93750 0.46250 1.00000)
		4 V(852 416 850 195) M(13) UV(0.46250 1.00000 0.46250 0.93750 0.45000 0.93750 0.45000 1.00000)
		4 V(416 632 306 850) M(13) UV(0.46250 0.93750 0.46250 0.87500 0.45000 0.87500 0.45000 0.93750)
		4 V(631 358 632 416) M(13) UV(0.47500 0.93750 0.47500 0.87500 0.46250 0.87500 0.46250 0.93750)
		4 V(358 633 417 632) M(13) UV(0.47500 0.87500 0.47500 0.81250 0.46250 0.81250 0.46250 0.87500)
		4 V(632 417 849 306) M(13) UV(0.46250 0.87500 0.46250 0.81250 0.45000 0.81250 0.45000 0.87500)
		4 V(417 853 208 849) M(13) UV(0.46250 0.81250 0.46250 0.75000 0.45000 0.75000 0.45000 0.81250)
		4 V(633 308 853 417) M(13) UV(0.47500 0.81250 0.47500 0.75000 0.46250 0.75000 0.46250 0.81250)
		4 V(309 855 418 634) M(13) UV(0.50000 0.87500 0.50000 0.81250 0.48750 0.81250 0.48750 0.87500)
		4 V(634 418 633 358) M(13) UV(0.48750 0.87500 0.48750 0.81250 0.47500 0.81250 0.47500 0.87500)
		4 V(418 854 308 633) M(13) UV(0.48750 0.81250 0.48750 0.75000 0.47500 0.75000 0.47500 0.81250)
		4 V(855 209 854 418) M(13) UV(0.50000 0.81250 0.50000 0.75000 0.48750 0.75000 0.48750 0.81250)
		4 V(197 862 419 857) M(13) UV(0.55000 1.00000 0.55000 0.93750 0.53750 0.93750 0.53750 1.00000)
		4 V(857 419 635 310) M(13) UV(0.53750 1.00000 0.53750 0.93750 0.52500 0.93750 0.52500 1.00000)
		4 V(419 638 359 635) M(13) UV(0.53750 0.93750 0.53750 0.87500 0.52500 0.87500 0.52500 0.93750)
		4 V(862 312 638 419) M(13) UV(0.55000 0.93750 0.55000 0.87500 0.53750 0.87500 0.53750 0.93750)
		4 V(310 635 420 858) M(13) UV(0.52500 1.00000 0.52500 0.93750 0.51250 0.93750 0.51250 1.00000)
		4 V(858 420 856 196) M(13) UV(0.51250 1.00000 0.51250 0.93750 0.50000 0.93750 0.50000 1.00000)
		4 V(420 636 309 856) M(13) UV(0.51250 0.93750 0.51250 0.87500 0.50000 0.87500 0.50000 0.93750)
		4 V(635 359 636 420) M(13) UV(0.52500 0.93750 0.52500 0.87500 0.51250 0.87500 0.51250 0.93750)
		4 V(359 637 421 636) M(13) UV(0.52500 0.87500 0.52500 0.81250 0.51250 0.81250 0.51250 0.87500)
		4 V(636 421 855 309) M(13) UV(0.51250 0.87500 0.51250 0.81250 0.50000 0.81250 0.50000 0.87500)
		4 V(421 859 209 855) M(13) UV(0.51250 0.81250 0.51250 0.75000 0.50000 0.75000 0.50000 0.81250)
		4 V(637 311 859 421) M(13) UV(0.52500 0.81250 0.52500 0.75000 0.51250 0.75000 0.51250 0.81250)
		4 V(312 861 422 638) M(13) UV(0.55000 0.87500 0.55000 0.81250 0.53750 0.81250 0.53750 0.87500)
		4 V(638 422 637 359) M(13) UV(0.53750 0.87500 0.53750 0.81250 0.52500 0.81250 0.52500 0.87500)
		4 V(422 860 311 637) M(13) UV(0.53750 0.81250 0.53750 0.75000 0.52500 0.75000 0.52500 0.81250)
		4 V(861 210 860 422) M(13) UV(0.55000 0.81250 0.55000 0.75000 0.53750 0.75000 0.53750 0.81250)
		4 V(198 868 423 863) M(13) UV(0.60000 1.00000 0.60000 0.93750 0.58750 0.93750 0.58750 1.00000)
		4 V(863 423 639 313) M(13) UV(0.58750 1.00000 0.58750 0.93750 0.57500 0.93750 0.57500 1.00000)
		4 V(423 642 360 639) M(13) UV(0.58750 0.93750 0.58750 0.87500 0.57500 0.87500 0.57500 0.93750)
		4 V(868 315 642 423) M(13) UV(0.60000 0.93750 0.60000 0.87500 0.58750 0.87500 0.58750 0.93750)
		4 V(313 639 424 864) M(13) UV(0.57500 1.00000 0.57500 0.93750 0.56250 0.93750 0.56250 1.00000)
		4 V(864 424 862 197) M(13) UV(0.56250 1.00000 0.56250 0.93750 0.55000 0.93750 0.55000 1.00000)
		4 V(424 640 312 862) M(13) UV(0.56250 0.93750 0.56250 0.87500 0.55000 0.87500 0.55000 0.93750)
		4 V(639 360 640 424) M(13) UV(0.57500 0.93750 0.57500 0.87500 0.56250 0.87500 0.56250 0.93750)
		4 V(360 641 425 640) M(13) UV(0.57500 0.87500 0.57500 0.81250 0.56250 0.81250 0.56250 0.87500)
		4 V(640 425 861 312) M(13) UV(0.56250 0.87500 0.56250 0.81250 0.55000 0.81250 0.55000 0.87500)
		4 V(425 865 210 861) M(13) UV(0.56250 0.81250 0.56250 0.75000 0.55000 0.75000 0.55000 0.81250)
		4 V(641 314 865 425) M(13) UV(0.57500 0.81250 0.57500 0.75000 0.56250 0.75000 0.56250 0.81250)
		4 V(315 867 426 642) M(13) UV(0.60000 0.87500 0.60000 0.81250 0.58750 0.81250 0.58750 0.87500)
		4 V(642 426 641 360) M(13) UV(0.58750 0.87500 0.58750 0.81250 0.57500 0.81250 0.57500 0.87500)
		4 V(426 866 314 641) M(13) UV(0.58750 0.81250 0.58750 0.75000 0.57500 0.75000 0.57500 0.81250)
		4 V(867 211 866 426) M(13) UV(0.60000 0.81250 0.60000 0.75000 0.58750 0.75000 0.58750 0.81250)
		4 V(199 874 427 869) M(13) UV(0.65000 1.00000 0.65000 0.93750 0.63750 0.93750 0.63750 1.00000)
		4 V(869 427 643 316) M(13) UV(0.63750 1.00000 0.63750 0.93750 0.62500 0.93750 0.62500 1.00000)
		4 V(427 646 361 643) M(13) UV(0.63750 0.93750 0.63750 0.87500 0.62500 0.87500 0.62500 0.93750)
		4 V(874 318 646 427) M(13) UV(0.65000 0.93750 0.65000 0.87500 0.63750 0.87500 0.63750 0.93750)
		4 V(316 643 428 870) M(13) UV(0.62500 1.00000 0.62500 0.93750 0.61250 0.93750 0.61250 1.00000)
		4 V(870 428 868 198) M(13) UV(0.61250 1.00000 0.61250 0.93750 0.60000 0.93750 0.60000 1.00000)
		4 V(428 644 315 868) M(13) UV(0.61250 0.93750 0.61250 0.87500 0.60000 0.87500 0.60000 0.93750)
		4 V(643 361 644 428) M(13) UV(0.62500 0.93750 0.62500 0.87500 0.61250 0.87500 0.61250 0.93750)
		4 V(361 645 429 644) M(13) UV(0.62500 0.87500 0.62500 0.81250 0.61250 0.81250 0.61250 0.87500)
		4 V(644 429 867 315) M(13) UV(0.61250 0.87500 0.61250 0.81250 0.60000 0.81250 0.60000 0.87500)
		4 V(429 871 211 867) M(13) UV(0.61250 0.81250 0.61250 0.75000 0.60000 0.75000 0.60000 0.81250)
		4 V(645 317 871 429) M(13) UV(0.62500 0.81250 0.62500 0.75000 0.61250 0.75000 0.61250 0.81250)
		4 V(318 873 430 646) M(13) UV(0.65000 0.87500 0.65000 0.81250 0.63750 0.81250 0.63750 0.87500)
		4 V(646 430 645 361) M(13) UV(0.63750 0.87500 0.63750 0.81250 0.62500 0.81250 0.62500 0.87500)
		4 V(430 872 317 645) M(13) UV(0.63750 0.81250 0.63750 0.75000 0.62500 0.75000 0.62500 0.81250)
		4 V(873 212 872 430) M(13) UV(0.65000 0.81250 0.65000 0.75000 0.63750 0.75000 0.63750 0.81250)
		4 V(200 880 431 875) M(13) UV(0.70000 1.00000 0.70000 0.93750 0.68750 0.93750 0.68750 1.00000)
		4 V(875 431 647 319) M(13) UV(0.68750 1.00000 0.68750 0.93750 0.67500 0.93750 0.67500 1.00000)
		4 V(431 650 362 647) M(13) UV(0.68750 0.93750 0.68750 0.87500 0.67500 0.87500 0.67500 0.93750)
		4 V(880 321 650 431) M(13) UV(0.70000 0.93750 0.70000 0.87500 0.68750 0.87500 0.68750 0.93750)
		4 V(319 647 432 876) M(13) UV(0.67500 1.00000 0.67500 0.93750 0.66250 0.93750 0.66250 1.00000)
		4 V(876 432 874 199) M(13) UV(0.66250 1.00000 0.66250 0.93750 0.65000 0.93750 0.65000 1.00000)
		4 V(432 648 318 874) M(13) UV(0.66250 0.93750 0.66250 0.87500 0.65000 0.87500 0.65000 0.93750)
		4 V(647 362 648 432) M(13) UV(0.67500 0.93750 0.67500 0.87500 0.66250 0.87500 0.66250 0.93750)
		4 V(362 649 433 648) M(13) UV(0.67500 0.87500 0.67500 0.81250 0.66250 0.81250 0.66250 0.87500)
		4 V(648 433 873 318) M(13) UV(0.66250 0.87500 0.66250 0.81250 0.65000 0.81250 0.65000 0.87500)
		4 V(433 877 212 873) M(13) UV(0.66250 0.81250 0.66250 0.75000 0.65000 0.75000 0.65000 0.81250)
		4 V(649 320 877 433) M(13) UV(0.67500 0.81250 0.67500 0.75000 0.66250 0.75000 0.66250 0.81250)
		4 V(321 879 434 650) M(13) UV(0.70000 0.87500 0.70000 0.81250 0.68750 0.81250 0.68750 0.87500)
		4 V(650 434 649 362) M(13) UV(0.68750 0.87500 0.68750 0.81250 0.67500 0.81250 0.67500 0.87500)
		4 V(434 878 320 649) M(13) UV(0.68750 0.81250 0.68750 0.75000 0.67500 0.75000 0.67500 0.81250)
		4 V(879 213 878 434) M(13) UV(0.70000 0.81250 0.70000 0.75000 0.68750 0.75000 0.68750 0.81250)
		4 V(201 886 435 881) M(13) UV(0.75000 1.00000 0.75000 0.93750 0.73750 0.93750 0.73750 1.00000)
		4 V(881 435 651 322) M(13) UV(0.73750 1.00000 0.73750 0.93750 0.72500 0.93750 0.72500 1.00000)
		4 V(435 654 363 651) M(13) UV(0.73750 0.93750 0.73750 0.87500 0.72500 0.87500 0.72500 0.93750)
		4 V(886 324 654 435) M(13) UV(0.75000 0.93750 0.75000 0.87500 0.73750 0.87500 0.73750 0.93750)
		4 V(322 651 436 882) M(13) UV(0.72500 1.00000 0.72500 0.93750 0.71250 0.93750 0.71250 1.00000)
		4 V(882 436 880 200) M(13) UV(0.71250 1.00000 0.71250 0.93750 0.70000 0.93750 0.70000 1.00000)
		4 V(436 652 321 880) M(13) UV(0.71250 0.93750 0.71250 0.87500 0.70000 0.87500 0.70000 0.93750)
		4 V(651 363 652 436) M(13) UV(0.72500 0.93750 0.72500 0.87500 0.71250 0.87500 0.71250 0.93750)
		4 V(363 653 437 652) M(13) UV(0.72500 0.87500 0.72500 0.81250 0.71250 0.81250 0.71250 0.87500)
		4 V(652 437 879 321) M(13) UV(0.71250 0.87500 0.71250 0.81250 0.70000 0.81250 0.70000 0.87500)
		4 V(437 883 213 879) M(13) UV(0.71250 0.81250 0.71250 0.75000 0.70000 0.75000 0.70000 0.81250)
		4 V(653 323 883 437) M(13) UV(0.72500 0.81250 0.72500 0.75000 0.71250 0.75000 0.71250 0.81250)
		4 V(324 885 438 654) M(13) UV(0.75000 0.87500 0.75000 0.81250 0.73750 0.81250 0.73750 0.87500)
		4 V(654 438 653 363) M(13) UV(0.73750 0.87500 0.73750 0.81250 0.72500 0.81250 0.72500 0.87500)
		4 V(438 884 323 653) M(13) UV(0.73750 0.81250 0.73750 0.75000 0.72500 0.75000 0.72500 0.81250)
		4 V(885 214 884 438) M(13) UV(0.75000 0.81250 0.75000 0.75000 0.73750 0.75000 0.73750 0.81250)
		4 V(202 892 439 887) M(13) UV(0.80000 1.00000 0.80000 0.93750 0.78750 0.93750 0.78750 1.00000)
		4 V(887 439 655 325) M(13) UV(0.78750 1.00000 0.78750 0.93750 0.77500 0.93750 0.77500 1.00000)
		4 V(439 658 364 655) M(13) UV(0.78750 0.93750 0.78750 0.87500 0.77500 0.87500 0.77500 0.93750)
		4 V(892 327 658 439) M(13) UV(0.80000 0.93750 0.80000 0.87500 0.78750 0.87500 0.78750 0.93750)
		4 V(325 655 440 888) M(13) UV(0.77500 1.00000 0.77500 0.93750 0.76250 0.93750 0.76250 1.00000)
		4 V(888 440 886 201) M(13) UV(0.76250 1.00000 0.76250 0.93750 0.75000 0.93750 0.75000 1.00000)
		4 V(440 656 324 886) M(13) UV(0.76250 0.93750 0.76250 0.87500 0.75000 0.87500 0.75000 0.93750)
		4 V(655 364 656 440) M(13) UV(0.77500 0.93750 0.77500 0.87500 0.76250 0.87500 0.76250 0.93750)
		4 V(364 657 441 656) M(13) UV(0.77500 0.87500 0.77500 0.81250 0.76250 0.81250 0.76250 0.87500)
		4 V(656 441 885 324) M(13) UV(0.76250 0.87500 0.76250 0.81250 0.75000 0.81250 0.75000 0.87500)
		4 V(441 889 214 885) M(13) UV(0.76250 0.81250 0.76250 0.75000 0.75000 0.75000 0.75000 0.81250)
		4 V(657 326 889 441) M(13) UV(0.77500 0.81250 0.77500 0.75000 0.76250 0.75000 0.76250 0.81250)
		4 V(327 891 442 658) M(13) UV(0.80000 0.87500 0.80000 0.81250 0.78750 0.81250 0.78750 0.87500)
		4 V(658 442 657 364) M(13) UV(0.78750 0.87500 0.78750 0.81250 0.77500 0.81250 0.77500 0.87500)
		4 V(442 890 326 657) M(13) UV(0.78750 0.81250 0.78750 0.75000 0.77500 0.75000 0.77500 0.81250)
		4 V(891 215 890 442) M(13) UV(0.80000 0.81250 0.80000 0.75000 0.78750 0.75000 0.78750 0.81250)
		4 V(203 898 443 893) M(13) UV(0.85000 1.00000 0.85000 0.93750 0.83750 0.93750 0.83750 1.00000)
		4 V(893 443 659 328) M(13) UV(0.83750 1.00000 0.83750 0.93750 0.82500 0.93750 0.82500 1.00000)
		4 V(443 662 365 659) M(13) UV(0.83750 0.93750 0.83750 0.87500 0.82500 0.87500 0.82500 0.93750)
		4 V(898 330 662 443) M(13) UV(0.85000 0.93750 0.85000 0.87500 0.83750 0.87500 0.83750 0.93750)
		4 V(328 659 444 894) M(13) UV(0.82500 1.00000 0.82500 0.93750 0.81250 0.93750 0.81250 1.00000)
		4 V(894 444 892 202) M(13) UV(0.81250 1.00000 0.81250 0.93750 0.80000 0.93750 0.80000 1.00000)
		4 V(444 660 327 892) M(13) UV(0.81250 0.93750 0.81250 0.87500 0.80000 0.87500 0.80000 0.93750)
		4 V(659 365 660 444) M(13) UV(0.82500 0.93750 0.82500 0.87500 0.81250 0.87500 0.81250 0.93750)
		4 V(365 661 445 660) M(13) UV(0.82500 0.87500 0.82500 0.81250 0.81250 0.81250 0.81250 0.87500)
		4 V(660 445 891 327) M(13) UV(0.81250 0.87500 0.81250 0.81250 0.80000 0.81250 0.80000 0.87500)
		4 V(445 895 215 891) M(13) UV(0.81250 0.81250 0.81250 0.75000 0.80000 0.75000 0.80000 0.81250)
		4 V(661 329 895 445) M(13) UV(0.82500 0.81250 0.82500 0.75000 0.81250 0.75000 0.81250 0.81250)
		4 V(330 897 446 662) M(13) UV(0.85000 0.87500 0.85000 0.81250 0.83750 0.81250 0.83750 0.87500)
		4 V(662 446 661 365) M(13) UV(0.83750 0.87500 0.83750 0.81250 0.82500 0.81250 0.82500 0.87500)
		4 V(446 896 329 661) M(13) UV(0.83750 0.81250 0.83750 0.75000 0.82500 0.75000 0.82500 0.81250)
		4 V(897 216 896 446) M(13) UV(0.85000 0.81250 0.85000 0.75000 0.83750 0.75000 0.83750 0.81250)
		4 V(204 904 447 899) M(13) UV(0.90000 1.00000 0.90000 0.93750 0.88750 0.93750 0.88750 1.00000)
		4 V(899 447 663 331) M(13) UV(0.88750 1.00000 0.88750 0.93750 0.87500 0.93750 0.87500 1.00000)
		4 V(447 666 366 663) M(13) UV(0.88750 0.93750 0.88750 0.87500 0.87500 0.87500 0.87500 0.93750)
		4 V(904 333 666 447) M(13) UV(0.90000 0.93750 0.90000 0.87500 0.88750 0.87500 0.88750 0.93750)
		4 V(331 663 448 900) M(13) UV(0.87500 1.00000 0.87500 0.93750 0.86250 0.93750 0.86250 1.00000)
		4 V(900 448 898 203) M(13) UV(0.86250 1.00000 0.86250 0.93750 0.85000 0.93750 0.85000 1.00000)
		4 V(448 664 330 898) M(13) UV(0.86250 0.93750 0.86250 0.87500 0.85000 0.87500 0.85000 0.93750)
		4 V(663 366 664 448) M(13) UV(0.87500 0.93750 0.87500 0.87500 0.86250 0.87500 0.86250 0.93750)
		4 V(366 665 449 664) M(13) UV(0.87500 0.87500 0.87500 0.81250 0.86250 0.81250 0.86250 0.87500)
		4 V(664 449 897 330) M(13) UV(0.86250 0.87500 0.86250 0.81250 0.85000 0.81250 0.85000 0.87500)
		4 V(449 901 216 897) M(13) UV(0.86250 0.81250 0.86250 0.75000 0.85000 0.75000 0.85000 0.81250)
		4 V(665 332 901 449) M(13) UV(0.87500 0.81250 0.87500 0.75000 0.86250 0.75000 0.86250 0.81250)
		4 V(333 903 450 666) M(13) UV(0.90000 0.87500 0.90000 0.81250 0.88750 0.81250 0.88750 0.87500)
		4 V(666 450 665 366) M(13) UV(0.88750 0.87500 0.88750 0.81250 0.87500 0.81250 0.87500 0.87500)
		4 V(450 902 332 665) M(13) UV(0.88750 0.81250 0.88750 0.75000 0.87500 0.75000 0.87500 0.81250)
		4 V(903 217 902 450) M(13) UV(0.90000 0.81250 0.90000 0.75000 0.88750 0.75000 0.88750 0.81250)
		4 V(205 910 451 905) M(13) UV(0.95000 1.00000 0.95000 0.93750 0.93750 0.93750 0.93750 1.00000)
		4 V(905 451 667 334) M(13) UV(0.93750 1.00000 0.93750 0.93750 0.92500 0.93750 0.92500 1.00000)
		4 V(451 670 367 667) M(13) UV(0.93750 0.93750 0.93750 0.87500 0.92500 0.87500 0.92500 0.93750)
		4 V(910 336 670 451) M(13) UV(0.95000 0.93750 0.95000 0.87500 0.93750 0.87500 0.93750 0.93750)
		4 V(334 667 452 906) M(13) UV(0.92500 1.00000 0.92500 0.93750 0.91250 0.93750 0.91250 1.00000)
		4 V(906 452 904 204) M(13) UV(0.91250 1.00000 0.91250 0.93750 0.90000 0.93750 0.90000 1.00000)
		4 V(452 668 333 904) M(13) UV(0.91250 0.93750 0.91250 0.87500 0.90000 0.87500 0.90000 0.93750)
		4 V(667 367 668 452) M(13) UV(0.92500 0.93750 0.92500 0.87500 0.91250 0.87500 0.91250 0.93750)
		4 V(367 669 453 668) M(13) UV(0.92500 0.87500 0.92500 0.81250 0.91250 0.81250 0.91250 0.87500)
		4 V(668 453 903 333) M(13) UV(0.91250 0.87500 0.91250 0.81250 0.90000 0.81250 0.90000 0.87500)
		4 V(453 907 217 903) M(13) UV(0.91250 0.81250 0.91250 0.75000 0.90000 0.75000 0.90000 0.81250)
		4 V(669 335 907 453) M(13) UV(0.92500 0.81250 0.92500 0.75000 0.91250 0.75000 0.91250 0.81250)
		4 V(336 909 454 670) M(13) UV(0.95000 0.87500 0.95000 0.81250 0.93750 0.81250 0.93750 0.87500)
		4 V(670 454 669 367) M(13) UV(0.93750 0.87500 0.93750 0.81250 0.92500 0.81250 0.92500 0.87500)
		4 V(454 908 335 669) M(13) UV(0.93750 0.81250 0.93750 0.75000 0.92500 0.75000 0.92500 0.81250)
		4 V(909 218 908 454) M(13) UV(0.95000 0.81250 0.95000 0.75000 0.93750 0.75000 0.93750 0.81250)
		4 V(193 916 455 911) M(13) UV(1.00000 1.00000 0.99453 0.87500 0.98594 0.92188 0.98750 1.00000)
		4 V(911 455 671 337) M(13) UV(0.98750 1.00000 0.98594 0.92188 0.97461 0.93359 0.97500 1.00000)
		4 V(455 674 368 671) M(13) UV(0.98594 0.92188 0.98446 0.85069 0.97424 0.86892 0.97461 0.93359)
		4 V(916 339 674 455) M(13) UV(0.99453 0.87500 0.99222 0.80729 0.98446 0.85069 0.98594 0.92188)
		4 V(337 671 456 912) M(13) UV(0.97500 1.00000 0.97461 0.93359 0.96250 0.93750 0.96250 1.00000)
		4 V(912 456 910 205) M(13) UV(0.96250 1.00000 0.96250 0.93750 0.95000 0.93750 0.95000 1.00000)
		4 V(456 672 336 910) M(13) UV(0.96250 0.93750 0.96250 0.87500 0.95000 0.87500 0.95000 0.93750)
		4 V(671 368 672 456) M(13) UV(0.97461 0.93359 0.97424 0.86892 0.96250 0.87500 0.96250 0.93750)
		4 V(368 673 457 672) M(13) UV(0.97424 0.86892 0.97391 0.80773 0.96250 0.81250 0.96250 0.87500)
		4 V(672 457 909 336) M(13) UV(0.96250 0.87500 0.96250 0.81250 0.95000 0.81250 0.95000 0.87500)
		4 V(457 913 218 909) M(13) UV(0.96250 0.81250 0.96250 0.75000 0.95000 0.75000 0.95000 0.81250)
		4 V(673 338 913 457) M(13) UV(0.97391 0.80773 0.97376 0.74772 0.96250 0.75000 0.96250 0.81250)
		4 V(339 915 458 674) M(13) UV(0.99222 0.80729 0.98997 0.76042 0.98316 0.79340 0.98446 0.85069)
		4 V(674 458 673 368) M(13) UV(0.98446 0.85069 0.98316 0.79340 0.97391 0.80773 0.97424 0.86892)
		4 V(458 914 338 673) M(13) UV(0.98316 0.79340 0.98255 0.74089 0.97376 0.74772 0.97391 0.80773)
		4 V(915 206 914 458) M(13) UV(0.98997 0.76042 0.98773 0.73032 0.98255 0.74089 0.98316 0.79340)
		4 V(208 922 459 848) M(13) UV(0.45000 0.75000 0.45000 0.68750 0.43750 0.68750 0.43750 0.75000)
		4 V(848 459 675 305) M(13) UV(0.43750 0.75000 0.43750 0.68750 0.42539 0.68750 0.42510 0.75000)
		4 V(459 678 369 675) M(13) UV(0.43750 0.68750 0.43750 0.62500 0.42568 0.62500 0.42539 0.68750)
		4 V(922 342 678 459) M(13) UV(0.45000 0.68750 0.45000 0.62500 0.43750 0.62500 0.43750 0.68750)
		4 V(305 675 460 847) M(13) UV(0.42510 0.75000 0.42539 0.68750 0.41406 0.68750 0.41289 0.75000)
		4 V(847 460 917 207) M(13) UV(0.41289 0.75000 0.41406 0.68750 0.40547 0.67969 0.40000 0.75000)
		4 V(460 676 340 917) M(13) UV(0.41406 0.68750 0.41523 0.62500 0.40723 0.62305 0.40547 0.67969)
		4 V(675 369 676 460) M(13) UV(0.42539 0.68750 0.42568 0.62500 0.41523 0.62500 0.41406 0.68750)
		4 V(369 677 461 676) M(13) UV(0.42568 0.62500 0.42578 0.56250 0.41563 0.56250 0.41523 0.62500)
		4 V(676 461 918 340) M(13) UV(0.41523 0.62500 0.41563 0.56250 0.40781 0.56250 0.40723 0.62305)
		4 V(461 919 220 918) M(13) UV(0.41563 0.56250 0.41563 0.50000 0.40781 0.50000 0.40781 0.56250)
		4 V(677 341 919 461) M(13) UV(0.42578 0.56250 0.42578 0.50000 0.41563 0.50000 0.41563 0.56250)
		4 V(342 921 462 678) M(13) UV(0.45000 0.62500 0.45000 0.56250 0.43750 0.56250 0.43750 0.62500)
		4 V(678 462 677 369) M(13) UV(0.43750 0.62500 0.43750 0.56250 0.42578 0.56250 0.42568 0.62500)
		4 V(462 920 341 677) M(13) UV(0.43750 0.56250 0.43750 0.50000 0.42578 0.50000 0.42578 0.56250)
		4 V(921 221 920 462) M(13) UV(0.45000 0.56250 0.45000 0.50000 0.43750 0.50000 0.43750 0.56250)
		4 V(209 926 463 854) M(13) UV(0.50000 0.75000 0.50000 0.68750 0.48750 0.68750 0.48750 0.75000)
		4 V(854 463 679 308) M(13) UV(0.48750 0.75000 0.48750 0.68750 0.47500 0.68750 0.47500 0.75000)
		4 V(463 682 370 679) M(13) UV(0.48750 0.68750 0.48750 0.62500 0.47500 0.62500 0.47500 0.68750)
		4 V(926 344 682 463) M(13) UV(0.50000 0.68750 0.50000 0.62500 0.48750 0.62500 0.48750 0.68750)
		4 V(308 679 464 853) M(13) UV(0.47500 0.75000 0.47500 0.68750 0.46250 0.68750 0.46250 0.75000)
		4 V(853 464 922 208) M(13) UV(0.46250 0.75000 0.46250 0.68750 0.45000 0.68750 0.45000 0.75000)
		4 V(464 680 342 922) M(13) UV(0.46250 0.68750 0.46250 0.62500 0.45000 0.62500 0.45000 0.68750)
		4 V(679 370 680 464) M(13) UV(0.47500 0.68750 0.47500 0.62500 0.46250 0.62500 0.46250 0.68750)
		4 V(370 681 465 680) M(13) UV(0.47500 0.62500 0.47500 0.56250 0.46250 0.56250 0.46250 0.62500)
		4 V(680 465 921 342) M(13) UV(0.46250 0.62500 0.46250 0.56250 0.45000 0.56250 0.45000 0.62500)
		4 V(465 923 221 921) M(13) UV(0.46250 0.56250 0.46250 0.50000 0.45000 0.50000 0.45000 0.56250)
		4 V(681 343 923 465) M(13) UV(0.47500 0.56250 0.47500 0.50000 0.46250 0.50000 0.46250 0.56250)
		4 V(344 925 466 682) M(13) UV(0.50000 0.62500 0.50000 0.56250 0.48750 0.56250 0.48750 0.62500)
		4 V(682 466 681 370) M(13) UV(0.48750 0.62500 0.48750 0.56250 0.47500 0.56250 0.47500 0.62500)
		4 V(466 924 343 681) M(13) UV(0.48750 0.56250 0.48750 0.50000 0.47500 0.50000 0.47500 0.56250)
		4 V(925 222 924 466) M(13) UV(0.50000 0.56250 0.50000 0.50000 0.48750 0.50000 0.48750 0.56250)
		4 V(210 930 467 860) M(13) UV(0.55000 0.75000 0.55000 0.68750 0.53750 0.68750 0.53750 0.75000)
		4 V(860 467 683 311) M(13) UV(0.53750 0.75000 0.53750 0.68750 0.52500 0.68750 0.52500 0.75000)
		4 V(467 686 371 683) M(13) UV(0.53750 0.68750 0.53750 0.62500 0.52500 0.62500 0.52500 0.68750)
		4 V(930 346 686 467) M(13) UV(0.55000 0.68750 0.55000 0.62500 0.53750 0.62500 0.53750 0.68750)
		4 V(311 683 468 859) M(13) UV(0.52500 0.75000 0.52500 0.68750 0.51250 0.68750 0.51250 0.75000)
		4 V(859 468 926 209) M(13) UV(0.51250 0.75000 0.51250 0.68750 0.50000 0.68750 0.50000 0.75000)
		4 V(468 684 344 926) M(13) UV(0.51250 0.68750 0.51250 0.62500 0.50000 0.62500 0.50000 0.68750)
		4 V(683 371 684 468) M(13) UV(0.52500 0.68750 0.52500 0.62500 0.51250 0.62500 0.51250 0.68750)
		4 V(371 685 469 684) M(13) UV(0.52500 0.62500 0.52500 0.56250 0.51250 0.56250 0.51250 0.62500)
		4 V(684 469 925 344) M(13) UV(0.51250 0.62500 0.51250 0.56250 0.50000 0.56250 0.50000 0.62500)
		4 V(469 927 222 925) M(13) UV(0.51250 0.56250 0.51250 0.50000 0.50000 0.50000 0.50000 0.56250)
		4 V(685 345 927 469) M(13) UV(0.52500 0.56250 0.52500 0.50000 0.51250 0.50000 0.51250 0.56250)
		4 V(346 929 470 686) M(13) UV(0.55000 0.62500 0.55000 0.56250 0.53750 0.56250 0.53750 0.62500)
		4 V(686 470 685 371) M(13) UV(0.53750 0.62500 0.53750 0.56250 0.52500 0.56250 0.52500 0.62500)
		4 V(470 928 345 685) M(13) UV(0.53750 0.56250 0.53750 0.50000 0.52500 0.50000 0.52500 0.56250)
		4 V(929 223 928 470) M(13) UV(0.55000 0.56250 0.55000 0.50000 0.53750 0.50000 0.53750 0.56250)
		4 V(211 934 471 866) M(13) UV(0.60000 0.75000 0.60000 0.68750 0.58750 0.68750 0.58750 0.75000)
		4 V(866 471 687 314) M(13) UV(0.58750 0.75000 0.58750 0.68750 0.57500 0.68750 0.57500 0.75000)
		4 V(471 690 372 687) M(13) UV(0.58750 0.68750 0.58750 0.62500 0.57500 0.62500 0.57500 0.68750)
		4 V(934 348 690 471) M(13) UV(0.60000 0.68750 0.60000 0.62500 0.58750 0.62500 0.58750 0.68750)
		4 V(314 687 472 865) M(13) UV(0.57500 0.75000 0.57500 0.68750 0.56250 0.68750 0.56250 0.75000)
		4 V(865 472 930 210) M(13) UV(0.56250 0.75000 0.56250 0.68750 0.55000 0.68750 0.55000 0.75000)
		4 V(472 688 346 930) M(13) UV(0.56250 0.68750 0.56250 0.62500 0.55000 0.62500 0.55000 0.68750)
		4 V(687 372 688 472) M(13) UV(0.57500 0.68750 0.57500 0.62500 0.56250 0.62500 0.56250 0.68750)
		4 V(372 689 473 688) M(13) UV(0.57500 0.62500 0.57500 0.56250 0.56250 0.56250 0.56250 0.62500)
		4 V(688 473 929 346) M(13) UV(0.56250 0.62500 0.56250 0.56250 0.55000 0.56250 0.55000 0.62500)
		4 V(473 931 223 929) M(13) UV(0.56250 0.56250 0.56250 0.50000 0.55000 0.50000 0.55000 0.56250)
		4 V(689 347 931 473) M(13) UV(0.57500 0.56250 0.57500 0.50000 0.56250 0.50000 0.56250 0.56250)
		4 V(348 933 474 690) M(13) UV(0.60000 0.62500 0.60000 0.56250 0.58750 0.56250 0.58750 0.62500)
		4 V(690 474 689 372) M(13) UV(0.58750 0.62500 0.58750 0.56250 0.57500 0.56250 0.57500 0.62500)
		4 V(474 932 347 689) M(13) UV(0.58750 0.56250 0.58750 0.50000 0.57500 0.50000 0.57500 0.56250)
		4 V(933 224 932 474) M(13) UV(0.60000 0.56250 0.60000 0.50000 0.58750 0.50000 0.58750 0.56250)
		4 V(212 938 475 872) M(13) UV(0.65000 0.75000 0.65000 0.68750 0.63750 0.68750 0.63750 0.75000)
		4 V(872 475 691 317) M(13) UV(0.63750 0.75000 0.63750 0.68750 0.62500 0.68750 0.62500 0.75000)
		4 V(475 694 373 691) M(13) UV(0.63750 0.68750 0.63750 0.62500 0.62500 0.62500 0.62500 0.68750)
		4 V(938 350 694 475) M(13) UV(0.65000 0.68750 0.65000 0.62500 0.63750 0.62500 0.63750 0.68750)
		4 V(317 691 476 871) M(13) UV(0.62500 0.75000 0.62500 0.68750 0.61250 0.68750 0.61250 0.75000)
		4 V(871 476 934 211) M(13) UV(0.61250 0.75000 0.61250 0.68750 0.60000 0.68750 0.60000 0.75000)
		4 V(476 692 348 934) M(13) UV(0.61250 0.68750 0.61250 0.62500 0.60000 0.62500 0.60000 0.68750)
		4 V(691 373 692 476) M(13) UV(0.62500 0.68750 0.62500 0.62500 0.61250 0.62500 0.61250 0.68750)
		4 V(373 693 477 692) M(13) UV(0.62500 0.62500 0.62500 0.56250 0.61250 0.56250 0.61250 0.62500)
		4 V(692 477 933 348) M(13) UV(0.61250 0.62500 0.61250 0.56250 0.60000 0.56250 0.60000 0.62500)
		4 V(477 935 224 933) M(13) UV(0.61250 0.56250 0.61250 0.50000 0.60000 0.50000 0.60000 0.56250)
		4 V(693 349 935 477) M(13) UV(0.62500 0.56250 0.62500 0.50000 0.61250 0.50000 0.61250 0.56250)
		4 V(350 937 478 694) M(13) UV(0.65000 0.62500 0.65000 0.56250 0.63750 0.56250 0.63750 0.62500)
		4 V(694 478 693 373) M(13) UV(0.63750 0.62500 0.63750 0.56250 0.62500 0.56250 0.62500 0.62500)
		4 V(478 936 349 693) M(13) UV(0.63750 0.56250 0.63750 0.50000 0.62500 0.50000 0.62500 0.56250)
		4 V(937 225 936 478) M(13) UV(0.65000 0.56250 0.65000 0.50000 0.63750 0.50000 0.63750 0.56250)
		4 V(213 942 479 878) M(13) UV(0.70000 0.75000 0.70000 0.68750 0.68750 0.68750 0.68750 0.75000)
		4 V(878 479 695 320) M(13) UV(0.68750 0.75000 0.68750 0.68750 0.67500 0.68750 0.67500 0.75000)
		4 V(479 698 374 695) M(13) UV(0.68750 0.68750 0.68750 0.62500 0.67500 0.62500 0.67500 0.68750)
		4 V(942 352 698 479) M(13) UV(0.70000 0.68750 0.70000 0.62500 0.68750 0.62500 0.68750 0.68750)
		4 V(320 695 480 877) M(13) UV(0.67500 0.75000 0.67500 0.68750 0.66250 0.68750 0.66250 0.75000)
		4 V(877 480 938 212) M(13) UV(0.66250 0.75000 0.66250 0.68750 0.65000 0.68750 0.65000 0.75000)
		4 V(480 696 350 938) M(13) UV(0.66250 0.68750 0.66250 0.62500 0.65000 0.62500 0.65000 0.68750)
		4 V(695 374 696 480) M(13) UV(0.67500 0.68750 0.67500 0.62500 0.66250 0.62500 0.66250 0.68750)
		4 V(374 697 481 696) M(13) UV(0.67500 0.62500 0.67500 0.56250 0.66250 0.56250 0.66250 0.62500)
		4 V(696 481 937 350) M(13) UV(0.66250 0.62500 0.66250 0.56250 0.65000 0.56250 0.65000 0.62500)
		4 V(481 939 225 937) M(13) UV(0.66250 0.56250 0.66250 0.50000 0.65000 0.50000 0.65000 0.56250)
		4 V(697 351 939 481) M(13) UV(0.67500 0.56250 0.67500 0.50000 0.66250 0.50000 0.66250 0.56250)
		4 V(352 941 482 698) M(13) UV(0.70000 0.62500 0.70000 0.56250 0.68750 0.56250 0.68750 0.62500)
		4 V(698 482 697 374) M(13) UV(0.68750 0.62500 0.68750 0.56250 0.67500 0.56250 0.67500 0.62500)
		4 V(482 940 351 697) M(13) UV(0.68750 0.56250 0.68750 0.50000 0.67500 0.50000 0.67500 0.56250)
		4 V(941 226 940 482) M(13) UV(0.70000 0.56250 0.70000 0.50000 0.68750 0.50000 0.68750 0.56250)
		4 V(214 946 483 884) M(13) UV(0.75000 0.75000 0.75000 0.68750 0.73750 0.68750 0.73750 0.75000)
		4 V(884 483 699 323) M(13) UV(0.73750 0.75000 0.73750 0.68750 0.72500 0.68750 0.72500 0.75000)
		4 V(483 702 375 699) M(13) UV(0.73750 0.68750 0.73750 0.62500 0.72500 0.62500 0.72500 0.68750)
		4 V(946 354 702 483) M(13) UV(0.75000 0.68750 0.75000 0.62500 0.73750 0.62500 0.73750 0.68750)
		4 V(323 699 484 883) M(13) UV(0.72500 0.75000 0.72500 0.68750 0.71250 0.68750 0.71250 0.75000)
		4 V(883 484 942 213) M(13) UV(0.71250 0.75000 0.71250 0.68750 0.70000 0.68750 0.70000 0.75000)
		4 V(484 700 352 942) M(13) UV(0.71250 0.68750 0.71250 0.62500 0.70000 0.62500 0.70000 0.68750)
		4 V(699 375 700 484) M(13) UV(0.72500 0.68750 0.72500 0.62500 0.71250 0.62500 0.71250 0.68750)
		4 V(375 701 485 700) M(13) UV(0.72500 0.62500 0.72500 0.56250 0.71250 0.56250 0.71250 0.62500)
		4 V(700 485 941 352) M(13) UV(0.71250 0.62500 0.71250 0.56250 0.70000 0.56250 0.70000 0.62500)
		4 V(485 943 226 941) M(13) UV(0.71250 0.56250 0.71250 0.50000 0.70000 0.50000 0.70000 0.56250)
		4 V(701 353 943 485) M(13) UV(0.72500 0.56250 0.72500 0.50000 0.71250 0.50000 0.71250 0.56250)
		4 V(354 945 486 702) M(13) UV(0.75000 0.62500 0.75000 0.56250 0.73750 0.56250 0.73750 0.62500)
		4 V(702 486 701 375) M(13) UV(0.73750 0.62500 0.73750 0.56250 0.72500 0.56250 0.72500 0.62500)
		4 V(486 944 353 701) M(13) UV(0.73750 0.56250 0.73750 0.50000 0.72500 0.50000 0.72500 0.56250)
		4 V(945 227 944 486) M(13) UV(0.75000 0.56250 0.75000 0.50000 0.73750 0.50000 0.73750 0.56250)
		4 V(215 950 487 890) M(13) UV(0.80000 0.75000 0.80000 0.68750 0.78750 0.68750 0.78750 0.75000)
		4 V(890 487 703 326) M(13) UV(0.78750 0.75000 0.78750 0.68750 0.77500 0.68750 0.77500 0.75000)
		4 V(487 706 376 703) M(13) UV(0.78750 0.68750 0.78750 0.62500 0.77500 0.62500 0.77500 0.68750)
		4 V(950 356 706 487) M(13) UV(0.80000 0.68750 0.80000 0.62500 0.78750 0.62500 0.78750 0.68750)
		4 V(326 703 488 889) M(13) UV(0.77500 0.75000 0.77500 0.68750 0.76250 0.68750 0.76250 0.75000)
		4 V(889 488 946 214) M(13) UV(0.76250 0.75000 0.76250 0.68750 0.75000 0.68750 0.75000 0.75000)
		4 V(488 704 354 946) M(13) UV(0.76250 0.68750 0.76250 0.62500 0.75000 0.62500 0.75000 0.68750)
		4 V(703 376 704 488) M(13) UV(0.77500 0.68750 0.77500 0.62500 0.76250 0.62500 0.76250 0.68750)
		4 V(376 705 489 704) M(13) UV(0.77500 0.62500 0.77500 0.56250 0.76250 0.56250 0.76250 0.62500)
		4 V(704 489 945 354) M(13) UV(0.76250 0.62500 0.76250 0.56250 0.75000 0.56250 0.75000 0.62500)
		4 V(489 947 227 945) M(13) UV(0.76250 0.56250 0.76250 0.50000 0.75000 0.50000 0.75000 0.56250)
		4 V(705 355 947 489) M(13) UV(0.77500 0.56250 0.77500 0.50000 0.76250 0.50000 0.76250 0.56250)
		4 V(356 949 490 706) M(13) UV(0.80000 0.62500 0.80000 0.56250 0.78750 0.56250 0.78750 0.62500)
		4 V(706 490 705 376) M(13) UV(0.78750 0.62500 0.78750 0.56250 0.77500 0.56250 0.77500 0.62500)
		4 V(490 948 355 705) M(13) UV(0.78750 0.56250 0.78750 0.50000 0.77500 0.50000 0.77500 0.56250)
		4 V(949 228 948 490) M(13) UV(0.80000 0.56250 0.80000 0.50000 0.78750 0.50000 0.78750 0.56250)
		4 V(216 954 491 896) M(13) UV(0.85000 0.75000 0.85000 0.68750 0.83750 0.68750 0.83750 0.75000)
		4 V(896 491 707 329) M(13) UV(0.83750 0.75000 0.83750 0.68750 0.82500 0.68750 0.82500 0.75000)
		4 V(491 710 377 707) M(13) UV(0.83750 0.68750 0.83750 0.62500 0.82500 0.62500 0.82500 0.68750)
		4 V(954 250 710 491) M(13) UV(0.85000 0.68750 0.85000 0.62500 0.83750 0.62500 0.83750 0.68750)
		4 V(329 707 492 895) M(13) UV(0.82500 0.75000 0.82500 0.68750 0.81250 0.68750 0.81250 0.75000)
		4 V(895 492 950 215) M(13) UV(0.81250 0.75000 0.81250 0.68750 0.80000 0.68750 0.80000 0.75000)
		4 V(492 708 356 950) M(13) UV(0.81250 0.68750 0.81250 0.62500 0.80000 0.62500 0.80000 0.68750)
		4 V(707 377 708 492) M(13) UV(0.82500 0.68750 0.82500 0.62500 0.81250 0.62500 0.81250 0.68750)
		4 V(377 709 493 708) M(13) UV(0.82500 0.62500 0.82500 0.56250 0.81250 0.56250 0.81250 0.62500)
		4 V(708 493 949 356) M(13) UV(0.81250 0.62500 0.81250 0.56250 0.80000 0.56250 0.80000 0.62500)
		4 V(493 951 228 949) M(13) UV(0.81250 0.56250 0.81250 0.50000 0.80000 0.50000 0.80000 0.56250)
		4 V(709 249 951 493) M(13) UV(0.82500 0.56250 0.82500 0.50000 0.81250 0.50000 0.81250 0.56250)
		4 V(250 953 494 710) M(13) UV(0.85000 0.62500 0.85000 0.56250 0.83750 0.56250 0.83750 0.62500)
		4 V(710 494 709 377) M(13) UV(0.83750 0.62500 0.83750 0.56250 0.82500 0.56250 0.82500 0.62500)
		4 V(494 952 249 709) M(13) UV(0.83750 0.56250 0.83750 0.50000 0.82500 0.50000 0.82500 0.56250)
		4 V(953 229 952 494) M(13) UV(0.85000 0.56250 0.85000 0.50000 0.83750 0.50000 0.83750 0.56250)
		4 V(217 958 495 902) M(13) UV(0.90000 0.75000 0.90000 0.68750 0.88750 0.68750 0.88750 0.75000)
		4 V(902 495 711 332) M(13) UV(0.88750 0.75000 0.88750 0.68750 0.87500 0.68750 0.87500 0.75000)
		4 V(495 714 378 711) M(13) UV(0.88750 0.68750 0.88750 0.62500 0.87500 0.62500 0.87500 0.68750)
		4 V(958 252 714 495) M(13) UV(0.90000 0.68750 0.90000 0.62500 0.88750 0.62500 0.88750 0.68750)
		4 V(332 711 496 901) M(13) UV(0.87500 0.75000 0.87500 0.68750 0.86250 0.68750 0.86250 0.75000)
		4 V(901 496 954 216) M(13) UV(0.86250 0.75000 0.86250 0.68750 0.85000 0.68750 0.85000 0.75000)
		4 V(496 712 250 954) M(13) UV(0.86250 0.68750 0.86250 0.62500 0.85000 0.62500 0.85000 0.68750)
		4 V(711 378 712 496) M(13) UV(0.87500 0.68750 0.87500 0.62500 0.86250 0.62500 0.86250 0.68750)
		4 V(378 713 497 712) M(13) UV(0.87500 0.62500 0.87500 0.56250 0.86250 0.56250 0.86250 0.62500)
		4 V(712 497 953 250) M(13) UV(0.86250 0.62500 0.86250 0.56250 0.85000 0.56250 0.85000 0.62500)
		4 V(497 955 229 953) M(13) UV(0.86250 0.56250 0.86250 0.50000 0.85000 0.50000 0.85000 0.56250)
		4 V(713 251 955 497) M(13) UV(0.87500 0.56250 0.87500 0.50000 0.86250 0.50000 0.86250 0.56250)
		4 V(252 957 498 714) M(13) UV(0.90000 0.62500 0.90000 0.56250 0.88750 0.56250 0.88750 0.62500)
		4 V(714 498 713 378) M(13) UV(0.88750 0.62500 0.88750 0.56250 0.87500 0.56250 0.87500 0.62500)
		4 V(498 956 251 713) M(13) UV(0.88750 0.56250 0.88750 0.50000 0.87500 0.50000 0.87500 0.56250)
		4 V(957 230 956 498) M(13) UV(0.90000 0.56250 0.90000 0.50000 0.88750 0.50000 0.88750 0.56250)
		4 V(218 962 499 908) M(13) UV(0.95000 0.75000 0.95000 0.68750 0.93750 0.68750 0.93750 0.75000)
		4 V(908 499 715 335) M(13) UV(0.93750 0.75000 0.93750 0.68750 0.92500 0.68750 0.92500 0.75000)
		4 V(499 718 379 715) M(13) UV(0.93750 0.68750 0.93750 0.62500 0.92500 0.62500 0.92500 0.68750)
		4 V(962 254 718 499) M(13) UV(0.95000 0.68750 0.95000 0.62500 0.93750 0.62500 0.93750 0.68750)
		4 V(335 715 500 907) M(13) UV(0.92500 0.75000 0.92500 0.68750 0.91250 0.68750 0.91250 0.75000)
		4 V(907 500 958 217) M(13) UV(0.91250 0.75000 0.91250 0.68750 0.90000 0.68750 0.90000 0.75000)
		4 V(500 716 252 958) M(13) UV(0.91250 0.68750 0.91250 0.62500 0.90000 0.62500 0.90000 0.68750)
		4 V(715 379 716 500) M(13) UV(0.92500 0.68750 0.92500 0.62500 0.91250 0.62500 0.91250 0.68750)
		4 V(379 717 501 716) M(13) UV(0.92500 0.62500 0.92500 0.56250 0.91250 0.56250 0.91250 0.62500)
		4 V(716 501 957 252) M(13) UV(0.91250 0.62500 0.91250 0.56250 0.90000 0.56250 0.90000 0.62500)
		4 V(501 959 230 957) M(13) UV(0.91250 0.56250 0.91250 0.50000 0.90000 0.50000 0.90000 0.56250)
		4 V(717 253 959 501) M(13) UV(0.92500 0.56250 0.92500 0.50000 0.91250 0.50000 0.91250 0.56250)
		4 V(254 961 502 718) M(13) UV(0.95000 0.62500 0.95000 0.56250 0.93750 0.56250 0.93750 0.62500)
		4 V(718 502 717 379) M(13) UV(0.93750 0.62500 0.93750 0.56250 0.92500 0.56250 0.92500 0.62500)
		4 V(502 960 253 717) M(13) UV(0.93750 0.56250 0.93750 0.50000 0.92500 0.50000 0.92500 0.56250)
		4 V(961 231 960 502) M(13) UV(0.95000 0.56250 0.95000 0.50000 0.93750 0.50000 0.93750 0.56250)
		4 V(206 966 503 914) M(13) UV(0.98773 0.73032 0.98997 0.68620 0.98316 0.68403 0.98255 0.74089)
		4 V(914 503 719 338) M(13) UV(0.98255 0.74089 0.98316 0.68403 0.97391 0.68663 0.97376 0.74772)
		4 V(503 722 380 719) M(13) UV(0.98316 0.68403 0.98377 0.62500 0.97407 0.62500 0.97391 0.68663)
		4 V(966 256 722 503) M(13) UV(0.98997 0.68620 0.99108 0.62500 0.98377 0.62500 0.98316 0.68403)
		4 V(338 719 504 913) M(13) UV(0.97376 0.74772 0.97391 0.68663 0.96250 0.68750 0.96250 0.75000)
		4 V(913 504 962 218) M(13) UV(0.96250 0.75000 0.96250 0.68750 0.95000 0.68750 0.95000 0.75000)
		4 V(504 720 254 962) M(13) UV(0.96250 0.68750 0.96250 0.62500 0.95000 0.62500 0.95000 0.68750)
		4 V(719 380 720 504) M(13) UV(0.97391 0.68663 0.97407 0.62500 0.96250 0.62500 0.96250 0.68750)
		4 V(380 721 505 720) M(13) UV(0.97407 0.62500 0.97391 0.56337 0.96250 0.56250 0.96250 0.62500)
		4 V(720 505 961 254) M(13) UV(0.96250 0.62500 0.96250 0.56250 0.95000 0.56250 0.95000 0.62500)
		4 V(505 963 231 961) M(13) UV(0.96250 0.56250 0.96250 0.50000 0.95000 0.50000 0.95000 0.56250)
		4 V(721 255 963 505) M(13) UV(0.97391 0.56337 0.97376 0.50228 0.96250 0.50000 0.96250 0.56250)
		4 V(256 965 506 722) M(13) UV(0.99108 0.62500 0.98997 0.56380 0.98316 0.56597 0.98377 0.62500)
		4 V(722 506 721 380) M(13) UV(0.98377 0.62500 0.98316 0.56597 0.97391 0.56337 0.97407 0.62500)
		4 V(506 964 255 721) M(13) UV(0.98316 0.56597 0.98255 0.50911 0.97376 0.50228 0.97391 0.56337)
		4 V(965 219 964 506) M(13) UV(0.98997 0.56380 0.98773 0.51968 0.98255 0.50911 0.98316 0.56597)
		4 V(221 972 507 920) M(13) UV(0.45000 0.50000 0.45000 0.43750 0.43750 0.43750 0.43750 0.50000)
		4 V(920 507 723 341) M(13) UV(0.43750 0.50000 0.43750 0.43750 0.42578 0.43750 0.42578 0.50000)
		4 V(507 726 381 723) M(13) UV(0.43750 0.43750 0.43750 0.37500 0.42578 0.37500 0.42578 0.43750)
		4 V(972 259 726 507) M(13) UV(0.45000 0.43750 0.45000 0.37500 0.43750 0.37500 0.43750 0.43750)
		4 V(341 723 508 919) M(13) UV(0.42578 0.50000 0.42578 0.43750 0.41563 0.43750 0.41563 0.50000)
		4 V(919 508 967 220) M(13) UV(0.41563 0.50000 0.41563 0.43750 0.40781 0.43750 0.40781 0.50000)
		4 V(508 724 257 967) M(13) UV(0.41563 0.43750 0.41563 0.37500 0.40781 0.37500 0.40781 0.43750)
		4 V(723 381 724 508) M(13) UV(0.42578 0.43750 0.42578 0.37500 0.41563 0.37500 0.41563 0.43750)
		4 V(381 725 509 724) M(13) UV(0.42578 0.37500 0.42578 0.31250 0.41563 0.31250 0.41563 0.37500)
		4 V(724 509 968 257) M(13) UV(0.41563 0.37500 0.41563 0.31250 0.40781 0.31250 0.40781 0.37500)
		4 V(509 969 233 968) M(13) UV(0.41563 0.31250 0.41563 0.25000 0.40781 0.25000 0.40781 0.31250)
		4 V(725 258 969 509) M(13) UV(0.42578 0.31250 0.42578 0.25000 0.41563 0.25000 0.41563 0.31250)
		4 V(259 971 510 726) M(13) UV(0.45000 0.37500 0.45000 0.31250 0.43750 0.31250 0.43750 0.37500)
		4 V(726 510 725 381) M(13) UV(0.43750 0.37500 0.43750 0.31250 0.42578 0.31250 0.42578 0.37500)
		4 V(510 970 258 725) M(13) UV(0.43750 0.31250 0.43750 0.25000 0.42578 0.25000 0.42578 0.31250)
		4 V(971 234 970 510) M(13) UV(0.45000 0.31250 0.45000 0.25000 0.43750 0.25000 0.43750 0.31250)
		4 V(222 976 511 924) M(13) UV(0.50000 0.50000 0.50000 0.43750 0.48750 0.43750 0.48750 0.50000)
		4 V(924 511 727 343) M(13) UV(0.48750 0.50000 0.48750 0.43750 0.47500 0.43750 0.47500 0.50000)
		4 V(511 730 382 727) M(13) UV(0.48750 0.43750 0.48750 0.37500 0.47500 0.37500 0.47500 0.43750)
		4 V(976 261 730 511) M(13) UV(0.50000 0.43750 0.50000 0.37500 0.48750 0.37500 0.48750 0.43750)
		4 V(343 727 512 923) M(13) UV(0.47500 0.50000 0.47500 0.43750 0.46250 0.43750 0.46250 0.50000)
		4 V(923 512 972 221) M(13) UV(0.46250 0.50000 0.46250 0.43750 0.45000 0.43750 0.45000 0.50000)
		4 V(512 728 259 972) M(13) UV(0.46250 0.43750 0.46250 0.37500 0.45000 0.37500 0.45000 0.43750)
		4 V(727 382 728 512) M(13) UV(0.47500 0.43750 0.47500 0.37500 0.46250 0.37500 0.46250 0.43750)
		4 V(382 729 513 728) M(13) UV(0.47500 0.37500 0.47500 0.31250 0.46250 0.31250 0.46250 0.37500)
		4 V(728 513 971 259) M(13) UV(0.46250 0.37500 0.46250 0.31250 0.45000 0.31250 0.45000 0.37500)
		4 V(513 973 234 971) M(13) UV(0.46250 0.31250 0.46250 0.25000 0.45000 0.25000 0.45000 0.31250)
		4 V(729 260 973 513) M(13) UV(0.47500 0.31250 0.47500 0.25000 0.46250 0.25000 0.46250 0.31250)
		4 V(261 975 514 730) M(13) UV(0.50000 0.37500 0.50000 0.31250 0.48750 0.31250 0.48750 0.37500)
		4 V(730 514 729 382) M(13) UV(0.48750 0.37500 0.48750 0.31250 0.47500 0.31250 0.47500 0.37500)
		4 V(514 974 260 729) M(13) UV(0.48750 0.31250 0.48750 0.25000 0.47500 0.25000 0.47500 0.31250)
		4 V(975 235 974 514) M(13) UV(0.50000 0.31250 0.50000 0.25000 0.48750 0.25000 0.48750 0.31250)
		4 V(223 980 515 928) M(13) UV(0.55000 0.50000 0.55000 0.43750 0.53750 0.43750 0.53750 0.50000)
		4 V(928 515 731 345) M(13) UV(0.53750 0.50000 0.53750 0.43750 0.52500 0.43750 0.52500 0.50000)
		4 V(515 734 383 731) M(13) UV(0.53750 0.43750 0.53750 0.37500 0.52500 0.37500 0.52500 0.43750)
		4 V(980 263 734 515) M(13) UV(0.55000 0.43750 0.55000 0.37500 0.53750 0.37500 0.53750 0.43750)
		4 V(345 731 516 927) M(13) UV(0.52500 0.50000 0.52500 0.43750 0.51250 0.43750 0.51250 0.50000)
		4 V(927 516 976 222) M(13) UV(0.51250 0.50000 0.51250 0.43750 0.50000 0.43750 0.50000 0.50000)
		4 V(516 732 261 976) M(13) UV(0.51250 0.43750 0.51250 0.37500 0.50000 0.37500 0.50000 0.43750)
		4 V(731 383 732 516) M(13) UV(0.52500 0.43750 0.52500 0.37500 0.51250 0.37500 0.51250 0.43750)
		4 V(383 733 517 732) M(13) UV(0.52500 0.37500 0.52500 0.31250 0.51250 0.31250 0.51250 0.37500)
		4 V(732 517 975 261) M(13) UV(0.51250 0.37500 0.51250 0.31250 0.50000 0.31250 0.50000 0.37500)
		4 V(517 977 235 975) M(13) UV(0.51250 0.31250 0.51250 0.25000 0.50000 0.25000 0.50000 0.31250)
		4 V(733 262 977 517) M(13) UV(0.52500 0.31250 0.52500 0.25000 0.51250 0.25000 0.51250 0.31250)
		4 V(263 979 518 734) M(13) UV(0.55000 0.37500 0.55000 0.31250 0.53750 0.31250 0.53750 0.37500)
		4 V(734 518 733 383) M(13) UV(0.53750 0.37500 0.53750 0.31250 0.52500 0.31250 0.52500 0.37500)
		4 V(518 978 262 733) M(13) UV(0.53750 0.31250 0.53750 0.25000 0.52500 0.25000 0.52500 0.31250)
		4 V(979 236 978 518) M(13) UV(0.55000 0.31250 0.55000 0.25000 0.53750 0.25000 0.53750 0.31250)
		4 V(224 984 519 932) M(13) UV(0.60000 0.50000 0.60000 0.43750 0.58750 0.43750 0.58750 0.50000)
		4 V(932 519 735 347) M(13) UV(0.58750 0.50000 0.58750 0.43750 0.57500 0.43750 0.57500 0.50000)
		4 V(519 738 384 735) M(13) UV(0.58750 0.43750 0.58750 0.37500 0.57500 0.37500 0.57500 0.43750)
		4 V(984 265 738 519) M(13) UV(0.60000 0.43750 0.60000 0.37500 0.58750 0.37500 0.58750 0.43750)
		4 V(347 735 520 931) M(13) UV(0.57500 0.50000 0.57500 0.43750 0.56250 0.43750 0.56250 0.50000)
		4 V(931 520 980 223) M(13) UV(0.56250 0.50000 0.56250 0.43750 0.55000 0.43750 0.55000 0.50000)
		4 V(520 736 263 980) M(13) UV(0.56250 0.43750 0.56250 0.37500 0.55000 0.37500 0.55000 0.43750)
		4 V(735 384 736 520) M(13) UV(0.57500 0.43750 0.57500 0.37500 0.56250 0.37500 0.56250 0.43750)
		4 V(384 737 521 736) M(13) UV(0.57500 0.37500 0.57500 0.31250 0.56250 0.31250 0.56250 0.37500)
		4 V(736 521 979 263) M(13) UV(0.56250 0.37500 0.56250 0.31250 0.55000 0.31250 0.55000 0.37500)
		4 V(521 981 236 979) M(13) UV(0.56250 0.31250 0.56250 0.25000 0.55000 0.25000 0.55000 0.31250)
		4 V(737 264 981 521) M(13) UV(0.57500 0.31250 0.57500 0.25000 0.56250 0.25000 0.56250 0.31250)
		4 V(265 983 522 738) M(13) UV(0.60000 0.37500 0.60000 0.31250 0.58750 0.31250 0.58750 0.37500)
		4 V(738 522 737 384) M(13) UV(0.58750 0.37500 0.58750 0.31250 0.57500 0.31250 0.57500 0.37500)
		4 V(522 982 264 737) M(13) UV(0.58750 0.31250 0.58750 0.25000 0.57500 0.25000 0.57500 0.31250)
		4 V(983 237 982 522) M(13) UV(0.60000 0.31250 0.60000 0.25000 0.58750 0.25000 0.58750 0.31250)
		4 V(225 988 523 936) M(13) UV(0.65000 0.50000 0.65000 0.43750 0.63750 0.43750 0.63750 0.50000)
		4 V(936 523 739 349) M(13) UV(0.63750 0.50000 0.63750 0.43750 0.62500 0.43750 0.62500 0.50000)
		4 V(523 742 385 739) M(13) UV(0.63750 0.43750 0.63750 0.37500 0.62500 0.37500 0.62500 0.43750)
		4 V(988 267 742 523) M(13) UV(0.65000 0.43750 0.65000 0.37500 0.63750 0.37500 0.63750 0.43750)
		4 V(349 739 524 935) M(13) UV(0.62500 0.50000 0.62500 0.43750 0.61250 0.43750 0.61250 0.50000)
		4 V(935 524 984 224) M(13) UV(0.61250 0.50000 0.61250 0.43750 0.60000 0.43750 0.60000 0.50000)
		4 V(524 740 265 984) M(13) UV(0.61250 0.43750 0.61250 0.37500 0.60000 0.37500 0.60000 0.43750)
		4 V(739 385 740 524) M(13) UV(0.62500 0.43750 0.62500 0.37500 0.61250 0.37500 0.61250 0.43750)
		4 V(385 741 525 740) M(13) UV(0.62500 0.37500 0.62500 0.31250 0.61250 0.31250 0.61250 0.37500)
		4 V(740 525 983 265) M(13) UV(0.61250 0.37500 0.61250 0.31250 0.60000 0.31250 0.60000 0.37500)
		4 V(525 985 237 983) M(13) UV(0.61250 0.31250 0.61250 0.25000 0.60000 0.25000 0.60000 0.31250)
		4 V(741 266 985 525) M(13) UV(0.62500 0.31250 0.62500 0.25000 0.61250 0.25000 0.61250 0.31250)
		4 V(267 987 526 742) M(13) UV(0.65000 0.37500 0.65000 0.31250 0.63750 0.31250 0.63750 0.37500)
		4 V(742 526 741 385) M(13) UV(0.63750 0.37500 0.63750 0.31250 0.62500 0.31250 0.62500 0.37500)
		4 V(526 986 266 741) M(13) UV(0.63750 0.31250 0.63750 0.25000 0.62500 0.25000 0.62500 0.31250)
		4 V(987 238 986 526) M(13) UV(0.65000 0.31250 0.65000 0.25000 0.63750 0.25000 0.63750 0.31250)
		4 V(226 992 527 940) M(13) UV(0.70000 0.50000 0.70000 0.43750 0.68750 0.43750 0.68750 0.50000)
		4 V(940 527 743 351) M(13) UV(0.68750 0.50000 0.68750 0.43750 0.67500 0.43750 0.67500 0.50000)
		4 V(527 746 386 743) M(13) UV(0.68750 0.43750 0.68750 0.37500 0.67500 0.37500 0.67500 0.43750)
		4 V(992 269 746 527) M(13) UV(0.70000 0.43750 0.70000 0.37500 0.68750 0.37500 0.68750 0.43750)
		4 V(351 743 528 939) M(13) UV(0.67500 0.50000 0.67500 0.43750 0.66250 0.43750 0.66250 0.50000)
		4 V(939 528 988 225) M(13) UV(0.66250 0.50000 0.66250 0.43750 0.65000 0.43750 0.65000 0.50000)
		4 V(528 744 267 988) M(13) UV(0.66250 0.43750 0.66250 0.37500 0.65000 0.37500 0.65000 0.43750)
		4 V(743 386 744 528) M(13) UV(0.67500 0.43750 0.67500 0.37500 0.66250 0.37500 0.66250 0.43750)
		4 V(386 745 529 744) M(13) UV(0.67500 0.37500 0.67500 0.31250 0.66250 0.31250 0.66250 0.37500)
		4 V(744 529 987 267) M(13) UV(0.66250 0.37500 0.66250 0.31250 0.65000 0.31250 0.65000 0.37500)
		4 V(529 989 238 987) M(13) UV(0.66250 0.31250 0.66250 0.25000 0.65000 0.25000 0.65000 0.31250)
		4 V(745 268 989 529) M(13) UV(0.67500 0.31250 0.67500 0.25000 0.66250 0.25000 0.66250 0.31250)
		4 V(269 991 530 746) M(13) UV(0.70000 0.37500 0.70000 0.31250 0.68750 0.31250 0.68750 0.37500)
		4 V(746 530 745 386) M(13) UV(0.68750 0.37500 0.68750 0.31250 0.67500 0.31250 0.67500 0.37500)
		4 V(530 990 268 745) M(13) UV(0.68750 0.31250 0.68750 0.25000 0.67500 0.25000 0.67500 0.31250)
		4 V(991 239 990 530) M(13) UV(0.70000 0.31250 0.70000 0.25000 0.68750 0.25000 0.68750 0.31250)
		4 V(227 996 531 944) M(13) UV(0.75000 0.50000 0.75000 0.43750 0.73750 0.43750 0.73750 0.50000)
		4 V(944 531 747 353) M(13) UV(0.73750 0.50000 0.73750 0.43750 0.72500 0.43750 0.72500 0.50000)
		4 V(531 750 387 747) M(13) UV(0.73750 0.43750 0.73750 0.37500 0.72500 0.37500 0.72500 0.43750)
		4 V(996 271 750 531) M(13) UV(0.75000 0.43750 0.75000 0.37500 0.73750 0.37500 0.73750 0.43750)
		4 V(353 747 532 943) M(13) UV(0.72500 0.50000 0.72500 0.43750 0.71250 0.43750 0.71250 0.50000)
		4 V(943 532 992 226) M(13) UV(0.71250 0.50000 0.71250 0.43750 0.70000 0.43750 0.70000 0.50000)
		4 V(532 748 269 992) M(13) UV(0.71250 0.43750 0.71250 0.37500 0.70000 0.37500 0.70000 0.43750)
		4 V(747 387 748 532) M(13) UV(0.72500 0.43750 0.72500 0.37500 0.71250 0.37500 0.71250 0.43750)
		4 V(387 749 533 748) M(13) UV(0.72500 0.37500 0.72500 0.31250 0.71250 0.31250 0.71250 0.37500)
		4 V(748 533 991 269) M(13) UV(0.71250 0.37500 0.71250 0.31250 0.70000 0.31250 0.70000 0.37500)
		4 V(533 993 239 991) M(13) UV(0.71250 0.31250 0.71250 0.25000 0.70000 0.25000 0.70000 0.31250)
		4 V(749 270 993 533) M(13) UV(0.72500 0.31250 0.72500 0.25000 0.71250 0.25000 0.71250 0.31250)
		4 V(271 995 534 750) M(13) UV(0.75000 0.37500 0.75000 0.31250 0.73750 0.31250 0.73750 0.37500)
		4 V(750 534 749 387) M(13) UV(0.73750 0.37500 0.73750 0.31250 0.72500 0.31250 0.72500 0.37500)
		4 V(534 994 270 749) M(13) UV(0.73750 0.31250 0.73750 0.25000 0.72500 0.25000 0.72500 0.31250)
		4 V(995 240 994 534) M(13) UV(0.75000 0.31250 0.75000 0.25000 0.73750 0.25000 0.73750 0.31250)
		4 V(228 1000 535 948) M(13) UV(0.80000 0.50000 0.80000 0.43750 0.78750 0.43750 0.78750 0.50000)
		4 V(948 535 751 355) M(13) UV(0.78750 0.50000 0.78750 0.43750 0.77500 0.43750 0.77500 0.50000)
		4 V(535 754 388 751) M(13) UV(0.78750 0.43750 0.78750 0.37500 0.77500 0.37500 0.77500 0.43750)
		4 V(1000 273 754 535) M(13) UV(0.80000 0.43750 0.80000 0.37500 0.78750 0.37500 0.78750 0.43750)
		4 V(355 751 536 947) M(13) UV(0.77500 0.50000 0.77500 0.43750 0.76250 0.43750 0.76250 0.50000)
		4 V(947 536 996 227) M(13) UV(0.76250 0.50000 0.76250 0.43750 0.75000 0.43750 0.75000 0.50000)
		4 V(536 752 271 996) M(13) UV(0.76250 0.43750 0.76250 0.37500 0.75000 0.37500 0.75000 0.43750)
		4 V(751 388 752 536) M(13) UV(0.77500 0.43750 0.77500 0.37500 0.76250 0.37500 0.76250 0.43750)
		4 V(388 753 537 752) M(13) UV(0.77500 0.37500 0.77500 0.31250 0.76250 0.31250 0.76250 0.37500)
		4 V(752 537 995 271) M(13) UV(0.76250 0.37500 0.76250 0.31250 0.75000 0.31250 0.75000 0.37500)
		4 V(537 997 240 995) M(13) UV(0.76250 0.31250 0.76250 0.25000 0.75000 0.25000 0.75000 0.31250)
		4 V(753 272 997 537) M(13) UV(0.77500 0.31250 0.77500 0.25000 0.76250 0.25000 0.76250 0.31250)
		4 V(273 999 538 754) M(13) UV(0.80000 0.37500 0.80000 0.31250 0.78750 0.31250 0.78750 0.37500)
		4 V(754 538 753 388) M(13) UV(0.78750 0.37500 0.78750 0.31250 0.77500 0.31250 0.77500 0.37500)
		4 V(538 998 272 753) M(13) UV(0.78750 0.31250 0.78750 0.25000 0.77500 0.25000 0.77500 0.31250)
		4 V(999 241 998 538) M(13) UV(0.80000 0.31250 0.80000 0.25000 0.78750 0.25000 0.78750 0.31250)
		4 V(229 1004 539 952) M(13) UV(0.85000 0.50000 0.85000 0.43750 0.83750 0.43750 0.83750 0.50000)
		4 V(952 539 755 249) M(13) UV(0.83750 0.50000 0.83750 0.43750 0.82500 0.43750 0.82500 0.50000)
		4 V(539 758 389 755) M(13) UV(0.83750 0.43750 0.83750 0.37500 0.82500 0.37500 0.82500 0.43750)
		4 V(1004 275 758 539) M(13) UV(0.85000 0.43750 0.85000 0.37500 0.83750 0.37500 0.83750 0.43750)
		4 V(249 755 540 951) M(13) UV(0.82500 0.50000 0.82500 0.43750 0.81250 0.43750 0.81250 0.50000)
		4 V(951 540 1000 228) M(13) UV(0.81250 0.50000 0.81250 0.43750 0.80000 0.43750 0.80000 0.50000)
		4 V(540 756 273 1000) M(13) UV(0.81250 0.43750 0.81250 0.37500 0.80000 0.37500 0.80000 0.43750)
		4 V(755 389 756 540) M(13) UV(0.82500 0.43750 0.82500 0.37500 0.81250 0.37500 0.81250 0.43750)
		4 V(389 757 541 756) M(13) UV(0.82500 0.37500 0.82500 0.31250 0.81250 0.31250 0.81250 0.37500)
		4 V(756 541 999 273) M(13) UV(0.81250 0.37500 0.81250 0.31250 0.80000 0.31250 0.80000 0.37500)
		4 V(541 1001 241 999) M(13) UV(0.81250 0.31250 0.81250 0.25000 0.80000 0.25000 0.80000 0.31250)
		4 V(757 274 1001 541) M(13) UV(0.82500 0.31250 0.82500 0.25000 0.81250 0.25000 0.81250 0.31250)
		4 V(275 1003 542 758) M(13) UV(0.85000 0.37500 0.85000 0.31250 0.83750 0.31250 0.83750 0.37500)
		4 V(758 542 757 389) M(13) UV(0.83750 0.37500 0.83750 0.31250 0.82500 0.31250 0.82500 0.37500)
		4 V(542 1002 274 757) M(13) UV(0.83750 0.31250 0.83750 0.25000 0.82500 0.25000 0.82500 0.31250)
		4 V(1003 242 1002 542) M(13) UV(0.85000 0.31250 0.85000 0.25000 0.83750 0.25000 0.83750 0.31250)
		4 V(230 1008 543 956) M(13) UV(0.90000 0.50000 0.90000 0.43750 0.88750 0.43750 0.88750 0.50000)
		4 V(956 543 759 251) M(13) UV(0.88750 0.50000 0.88750 0.43750 0.87500 0.43750 0.87500 0.50000)
		4 V(543 762 390 759) M(13) UV(0.88750 0.43750 0.88750 0.37500 0.87500 0.37500 0.87500 0.43750)
		4 V(1008 277 762 543) M(13) UV(0.90000 0.43750 0.90000 0.37500 0.88750 0.37500 0.88750 0.43750)
		4 V(251 759 544 955) M(13) UV(0.87500 0.50000 0.87500 0.43750 0.86250 0.43750 0.86250 0.50000)
		4 V(955 544 1004 229) M(13) UV(0.86250 0.50000 0.86250 0.43750 0.85000 0.43750 0.85000 0.50000)
		4 V(544 760 275 1004) M(13) UV(0.86250 0.43750 0.86250 0.37500 0.85000 0.37500 0.85000 0.43750)
		4 V(759 390 760 544) M(13) UV(0.87500 0.43750 0.87500 0.37500 0.86250 0.37500 0.86250 0.43750)
		4 V(390 761 545 760) M(13) UV(0.87500 0.37500 0.87500 0.31250 0.86250 0.31250 0.86250 0.37500)
		4 V(760 545 1003 275) M(13) UV(0.86250 0.37500 0.86250 0.31250 0.85000 0.31250 0.85000 0.37500)
		4 V(545 1005 242 1003) M(13) UV(0.86250 0.31250 0.86250 0.25000 0.85000 0.25000 0.85000 0.31250)
		4 V(761 276 1005 545) M(13) UV(0.87500 0.31250 0.87500 0.25000 0.86250 0.25000 0.86250 0.31250)
		4 V(277 1007 546 762) M(13) UV(0.90000 0.37500 0.90000 0.31250 0.88750 0.31250 0.88750 0.37500)
		4 V(762 546 761 390) M(13) UV(0.88750 0.37500 0.88750 0.31250 0.87500 0.31250 0.87500 0.37500)
		4 V(546 1006 276 761) M(13) UV(0.88750 0.31250 0.88750 0.25000 0.87500 0.25000 0.87500 0.31250)
		4 V(1007 243 1006 546) M(13) UV(0.90000 0.31250 0.90000 0.25000 0.88750 0.25000 0.88750 0.31250)
		4 V(231 1012 547 960) M(13) UV(0.95000 0.50000 0.95000 0.43750 0.93750 0.43750 0.93750 0.50000)
		4 V(960 547 763 253) M(13) UV(0.93750 0.50000 0.93750 0.43750 0.92500 0.43750 0.92500 0.50000)
		4 V(547 766 391 763) M(13) UV(0.93750 0.43750 0.93750 0.37500 0.92500 0.37500 0.92500 0.43750)
		4 V(1012 279 766 547) M(13) UV(0.95000 0.43750 0.95000 0.37500 0.93750 0.37500 0.93750 0.43750)
		4 V(253 763 548 959) M(13) UV(0.92500 0.50000 0.92500 0.43750 0.91250 0.43750 0.91250 0.50000)
		4 V(959 548 1008 230) M(13) UV(0.91250 0.50000 0.91250 0.43750 0.90000 0.43750 0.90000 0.50000)
		4 V(548 764 277 1008) M(13) UV(0.91250 0.43750 0.91250 0.37500 0.90000 0.37500 0.90000 0.43750)
		4 V(763 391 764 548) M(13) UV(0.92500 0.43750 0.92500 0.37500 0.91250 0.37500 0.91250 0.43750)
		4 V(391 765 549 764) M(13) UV(0.92500 0.37500 0.92500 0.31250 0.91250 0.31250 0.91250 0.37500)
		4 V(764 549 1007 277) M(13) UV(0.91250 0.37500 0.91250 0.31250 0.90000 0.31250 0.90000 0.37500)
		4 V(549 1009 243 1007) M(13) UV(0.91250 0.31250 0.91250 0.25000 0.90000 0.25000 0.90000 0.31250)
		4 V(765 278 1009 549) M(13) UV(0.92500 0.31250 0.92500 0.25000 0.91250 0.25000 0.91250 0.31250)
		4 V(279 1011 550 766) M(13) UV(0.95000 0.37500 0.95000 0.31250 0.93750 0.31250 0.93750 0.37500)
		4 V(766 550 765 391) M(13) UV(0.93750 0.37500 0.93750 0.31250 0.92500 0.31250 0.92500 0.37500)
		4 V(550 1010 278 765) M(13) UV(0.93750 0.31250 0.93750 0.25000 0.92500 0.25000 0.92500 0.31250)
		4 V(1011 244 1010 550) M(13) UV(0.95000 0.31250 0.95000 0.25000 0.93750 0.25000 0.93750 0.31250)
		4 V(219 1016 551 964) M(13) UV(0.98773 0.51968 0.98997 0.48958 0.98316 0.45660 0.98255 0.50911)
		4 V(964 551 767 255) M(13) UV(0.98255 0.50911 0.98316 0.45660 0.97391 0.44227 0.97376 0.50228)
		4 V(551 770 392 767) M(13) UV(0.98316 0.45660 0.98446 0.39931 0.97424 0.38108 0.97391 0.44227)
		4 V(1016 281 770 551) M(13) UV(0.98997 0.48958 0.99222 0.44271 0.98446 0.39931 0.98316 0.45660)
		4 V(255 767 552 963) M(13) UV(0.97376 0.50228 0.97391 0.44227 0.96250 0.43750 0.96250 0.50000)
		4 V(963 552 1012 231) M(13) UV(0.96250 0.50000 0.96250 0.43750 0.95000 0.43750 0.95000 0.50000)
		4 V(552 768 279 1012) M(13) UV(0.96250 0.43750 0.96250 0.37500 0.95000 0.37500 0.95000 0.43750)
		4 V(767 392 768 552) M(13) UV(0.97391 0.44227 0.97424 0.38108 0.96250 0.37500 0.96250 0.43750)
		4 V(392 769 553 768) M(13) UV(0.97424 0.38108 0.97461 0.31641 0.96250 0.31250 0.96250 0.37500)
		4 V(768 553 1011 279) M(13) UV(0.96250 0.37500 0.96250 0.31250 0.95000 0.31250 0.95000 0.37500)
		4 V(553 1013 244 1011) M(13) UV(0.96250 0.31250 0.96250 0.25000 0.95000 0.25000 0.95000 0.31250)
		4 V(769 280 1013 553) M(13) UV(0.97461 0.31641 0.97490 0.25098 0.96250 0.25000 0.96250 0.31250)
		4 V(281 1015 554 770) M(13) UV(0.99222 0.44271 0.99453 0.37500 0.98594 0.32812 0.98446 0.39931)
		4 V(770 554 769 392) M(13) UV(0.98446 0.39931 0.98594 0.32812 0.97461 0.31641 0.97424 0.38108)
		4 V(554 1014 280 769) M(13) UV(0.98594 0.32812 0.98711 0.25391 0.97490 0.25098 0.97461 0.31641)
		4 V(1015 232 1014 554) M(13) UV(0.99453 0.37500 1.00000 0.25000 0.98711 0.25391 0.98594 0.32812)
		4 V(234 1020 555 970) M(13) UV(0.45000 0.25000 0.45000 0.18750 0.43750 0.18750 0.43750 0.25000)
		4 V(970 555 771 258) M(13) UV(0.43750 0.25000 0.43750 0.18750 0.42578 0.18750 0.42578 0.25000)
		4 V(555 774 393 771) M(13) UV(0.43750 0.18750 0.43750 0.12500 0.42568 0.12500 0.42578 0.18750)
		4 V(1020 283 774 555) M(13) UV(0.45000 0.18750 0.45000 0.12500 0.43750 0.12500 0.43750 0.18750)
		4 V(258 771 556 969) M(13) UV(0.42578 0.25000 0.42578 0.18750 0.41563 0.18750 0.41563 0.25000)
		4 V(969 556 1017 233) M(13) UV(0.41563 0.25000 0.41563 0.18750 0.40781 0.18750 0.40781 0.25000)
		4 V(556 772 282 1017) M(13) UV(0.41563 0.18750 0.41523 0.12500 0.40723 0.12695 0.40781 0.18750)
		4 V(771 393 772 556) M(13) UV(0.42578 0.18750 0.42568 0.12500 0.41523 0.12500 0.41563 0.18750)
		4 V(393 773 557 772) M(13) UV(0.42568 0.12500 0.42539 0.06250 0.41406 0.06250 0.41523 0.12500)
		4 V(772 557 1018 282) M(13) UV(0.41523 0.12500 0.41406 0.06250 0.40547 0.07031 0.40723 0.12695)
		4 V(557 844 194 1018) M(13) UV(0.41406 0.06250 0.41250 0.00000 0.40000 0.00000 0.40547 0.07031)
		4 V(773 303 844 557) M(13) UV(0.42539 0.06250 0.42500 0.00000 0.41250 0.00000 0.41406 0.06250)
		4 V(283 1019 558 774) M(13) UV(0.45000 0.12500 0.45000 0.06250 0.43750 0.06250 0.43750 0.12500)
		4 V(774 558 773 393) M(13) UV(0.43750 0.12500 0.43750 0.06250 0.42539 0.06250 0.42568 0.12500)
		4 V(558 843 303 773) M(13) UV(0.43750 0.06250 0.43750 0.00000 0.42500 0.00000 0.42539 0.06250)
		4 V(1019 195 843 558) M(13) UV(0.45000 0.06250 0.45000 0.00000 0.43750 0.00000 0.43750 0.06250)
		4 V(235 1022 559 974) M(13) UV(0.50000 0.25000 0.50000 0.18750 0.48750 0.18750 0.48750 0.25000)
		4 V(974 559 775 260) M(13) UV(0.48750 0.25000 0.48750 0.18750 0.47500 0.18750 0.47500 0.25000)
		4 V(559 778 394 775) M(13) UV(0.48750 0.18750 0.48750 0.12500 0.47500 0.12500 0.47500 0.18750)
		4 V(1022 284 778 559) M(13) UV(0.50000 0.18750 0.50000 0.12500 0.48750 0.12500 0.48750 0.18750)
		4 V(260 775 560 973) M(13) UV(0.47500 0.25000 0.47500 0.18750 0.46250 0.18750 0.46250 0.25000)
		4 V(973 560 1020 234) M(13) UV(0.46250 0.25000 0.46250 0.18750 0.45000 0.18750 0.45000 0.25000)
		4 V(560 776 283 1020) M(13) UV(0.46250 0.18750 0.46250 0.12500 0.45000 0.12500 0.45000 0.18750)
		4 V(775 394 776 560) M(13) UV(0.47500 0.18750 0.47500 0.12500 0.46250 0.12500 0.46250 0.18750)
		4 V(394 777 561 776) M(13) UV(0.47500 0.12500 0.47500 0.06250 0.46250 0.06250 0.46250 0.12500)
		4 V(776 561 1019 283) M(13) UV(0.46250 0.12500 0.46250 0.06250 0.45000 0.06250 0.45000 0.12500)
		4 V(561 852 195 1019) M(13) UV(0.46250 0.06250 0.46250 0.00000 0.45000 0.00000 0.45000 0.06250)
		4 V(777 307 852 561) M(13) UV(0.47500 0.06250 0.47500 0.00000 0.46250 0.00000 0.46250 0.06250)
		4 V(284 1021 562 778) M(13) UV(0.50000 0.12500 0.50000 0.06250 0.48750 0.06250 0.48750 0.12500)
		4 V(778 562 777 394) M(13) UV(0.48750 0.12500 0.48750 0.06250 0.47500 0.06250 0.47500 0.12500)
		4 V(562 851 307 777) M(13) UV(0.48750 0.06250 0.48750 0.00000 0.47500 0.00000 0.47500 0.06250)
		4 V(1021 196 851 562) M(13) UV(0.50000 0.06250 0.50000 0.00000 0.48750 0.00000 0.48750 0.06250)
		4 V(236 1024 563 978) M(13) UV(0.55000 0.25000 0.55000 0.18750 0.53750 0.18750 0.53750 0.25000)
		4 V(978 563 779 262) M(13) UV(0.53750 0.25000 0.53750 0.18750 0.52500 0.18750 0.52500 0.25000)
		4 V(563 782 395 779) M(13) UV(0.53750 0.18750 0.53750 0.12500 0.52500 0.12500 0.52500 0.18750)
		4 V(1024 285 782 563) M(13) UV(0.55000 0.18750 0.55000 0.12500 0.53750 0.12500 0.53750 0.18750)
		4 V(262 779 564 977) M(13) UV(0.52500 0.25000 0.52500 0.18750 0.51250 0.18750 0.51250 0.25000)
		4 V(977 564 1022 235) M(13) UV(0.51250 0.25000 0.51250 0.18750 0.50000 0.18750 0.50000 0.25000)
		4 V(564 780 284 1022) M(13) UV(0.51250 0.18750 0.51250 0.12500 0.50000 0.12500 0.50000 0.18750)
		4 V(779 395 780 564) M(13) UV(0.52500 0.18750 0.52500 0.12500 0.51250 0.12500 0.51250 0.18750)
		4 V(395 781 565 780) M(13) UV(0.52500 0.12500 0.52500 0.06250 0.51250 0.06250 0.51250 0.12500)
		4 V(780 565 1021 284) M(13) UV(0.51250 0.12500 0.51250 0.06250 0.50000 0.06250 0.50000 0.12500)
		4 V(565 858 196 1021) M(13) UV(0.51250 0.06250 0.51250 0.00000 0.50000 0.00000 0.50000 0.06250)
		4 V(781 310 858 565) M(13) UV(0.52500 0.06250 0.52500 0.00000 0.51250 0.00000 0.51250 0.06250)
		4 V(285 1023 566 782) M(13) UV(0.55000 0.12500 0.55000 0.06250 0.53750 0.06250 0.53750 0.12500)
		4 V(782 566 781 395) M(13) UV(0.53750 0.12500 0.53750 0.06250 0.52500 0.06250 0.52500 0.12500)
		4 V(566 857 310 781) M(13) UV(0.53750 0.06250 0.53750 0.00000 0.52500 0.00000 0.52500 0.06250)
		4 V(1023 197 857 566) M(13) UV(0.55000 0.06250 0.55000 0.00000 0.53750 0.00000 0.53750 0.06250)
		4 V(237 1026 567 982) M(13) UV(0.60000 0.25000 0.60000 0.18750 0.58750 0.18750 0.58750 0.25000)
		4 V(982 567 783 264) M(13) UV(0.58750 0.25000 0.58750 0.18750 0.57500 0.18750 0.57500 0.25000)
		4 V(567 786 396 783) M(13) UV(0.58750 0.18750 0.58750 0.12500 0.57500 0.12500 0.57500 0.18750)
		4 V(1026 286 786 567) M(13) UV(0.60000 0.18750 0.60000 0.12500 0.58750 0.12500 0.58750 0.18750)
		4 V(264 783 568 981) M(13) UV(0.57500 0.25000 0.57500 0.18750 0.56250 0.18750 0.56250 0.25000)
		4 V(981 568 1024 236) M(13) UV(0.56250 0.25000 0.56250 0.18750 0.55000 0.18750 0.55000 0.25000)
		4 V(568 784 285 1024) M(13) UV(0.56250 0.18750 0.56250 0.12500 0.55000 0.12500 0.55000 0.18750)
		4 V(783 396 784 568) M(13) UV(0.57500 0.18750 0.57500 0.12500 0.56250 0.12500 0.56250 0.18750)
		4 V(396 785 569 784) M(13) UV(0.57500 0.12500 0.57500 0.06250 0.56250 0.06250 0.56250 0.12500)
		4 V(784 569 1023 285) M(13) UV(0.56250 0.12500 0.56250 0.06250 0.55000 0.06250 0.55000 0.12500)
		4 V(569 864 197 1023) M(13) UV(0.56250 0.06250 0.56250 0.00000 0.55000 0.00000 0.55000 0.06250)
		4 V(785 313 864 569) M(13) UV(0.57500 0.06250 0.57500 0.00000 0.56250 0.00000 0.56250 0.06250)
		4 V(286 1025 570 786) M(13) UV(0.60000 0.12500 0.60000 0.06250 0.58750 0.06250 0.58750 0.12500)
		4 V(786 570 785 396) M(13) UV(0.58750 0.12500 0.58750 0.06250 0.57500 0.06250 0.57500 0.12500)
		4 V(570 863 313 785) M(13) UV(0.58750 0.06250 0.58750 0.00000 0.57500 0.00000 0.57500 0.06250)
		4 V(1025 198 863 570) M(13) UV(0.60000 0.06250 0.60000 0.00000 0.58750 0.00000 0.58750 0.06250)
		4 V(238 1028 571 986) M(13) UV(0.65000 0.25000 0.65000 0.18750 0.63750 0.18750 0.63750 0.25000)
		4 V(986 571 787 266) M(13) UV(0.63750 0.25000 0.63750 0.18750 0.62500 0.18750 0.62500 0.25000)
		4 V(571 790 397 787) M(13) UV(0.63750 0.18750 0.63750 0.12500 0.62500 0.12500 0.62500 0.18750)
		4 V(1028 287 790 571) M(13) UV(0.65000 0.18750 0.65000 0.12500 0.63750 0.12500 0.63750 0.18750)
		4 V(266 787 572 985) M(13) UV(0.62500 0.25000 0.62500 0.18750 0.61250 0.18750 0.61250 0.25000)
		4 V(985 572 1026 237) M(13) UV(0.61250 0.25000 0.61250 0.18750 0.60000 0.18750 0.60000 0.25000)
		4 V(572 788 286 1026) M(13) UV(0.61250 0.18750 0.61250 0.12500 0.60000 0.12500 0.60000 0.18750)
		4 V(787 397 788 572) M(13) UV(0.62500 0.18750 0.62500 0.12500 0.61250 0.12500 0.61250 0.18750)
		4 V(397 789 573 788) M(13) UV(0.62500 0.12500 0.62500 0.06250 0.61250 0.06250 0.61250 0.12500)
		4 V(788 573 1025 286) M(13) UV(0.61250 0.12500 0.61250 0.06250 0.60000 0.06250 0.60000 0.12500)
		4 V(573 870 198 1025) M(13) UV(0.61250 0.06250 0.61250 0.00000 0.60000 0.00000 0.60000 0.06250)
		4 V(789 316 870 573) M(13) UV(0.62500 0.06250 0.62500 0.00000 0.61250 0.00000 0.61250 0.06250)
		4 V(287 1027 574 790) M(13) UV(0.65000 0.12500 0.65000 0.06250 0.63750 0.06250 0.63750 0.12500)
		4 V(790 574 789 397) M(13) UV(0.63750 0.12500 0.63750 0.06250 0.62500 0.06250 0.62500 0.12500)
		4 V(574 869 316 789) M(13) UV(0.63750 0.06250 0.63750 0.00000 0.62500 0.00000 0.62500 0.06250)
		4 V(1027 199 869 574) M(13) UV(0.65000 0.06250 0.65000 0.00000 0.63750 0.00000 0.63750 0.06250)
		4 V(239 1030 575 990) M(13) UV(0.70000 0.25000 0.70000 0.18750 0.68750 0.18750 0.68750 0.25000)
		4 V(990 575 791 268) M(13) UV(0.68750 0.25000 0.68750 0.18750 0.67500 0.18750 0.67500 0.25000)
		4 V(575 794 398 791) M(13) UV(0.68750 0.18750 0.68750 0.12500 0.67500 0.12500 0.67500 0.18750)
		4 V(1030 288 794 575) M(13) UV(0.70000 0.18750 0.70000 0.12500 0.68750 0.12500 0.68750 0.18750)
		4 V(268 791 576 989) M(13) UV(0.67500 0.25000 0.67500 0.18750 0.66250 0.18750 0.66250 0.25000)
		4 V(989 576 1028 238) M(13) UV(0.66250 0.25000 0.66250 0.18750 0.65000 0.18750 0.65000 0.25000)
		4 V(576 792 287 1028) M(13) UV(0.66250 0.18750 0.66250 0.12500 0.65000 0.12500 0.65000 0.18750)
		4 V(791 398 792 576) M(13) UV(0.67500 0.18750 0.67500 0.12500 0.66250 0.12500 0.66250 0.18750)
		4 V(398 793 577 792) M(13) UV(0.67500 0.12500 0.67500 0.06250 0.66250 0.06250 0.66250 0.12500)
		4 V(792 577 1027 287) M(13) UV(0.66250 0.12500 0.66250 0.06250 0.65000 0.06250 0.65000 0.12500)
		4 V(577 876 199 1027) M(13) UV(0.66250 0.06250 0.66250 0.00000 0.65000 0.00000 0.65000 0.06250)
		4 V(793 319 876 577) M(13) UV(0.67500 0.06250 0.67500 0.00000 0.66250 0.00000 0.66250 0.06250)
		4 V(288 1029 578 794) M(13) UV(0.70000 0.12500 0.70000 0.06250 0.68750 0.06250 0.68750 0.12500)
		4 V(794 578 793 398) M(13) UV(0.68750 0.12500 0.68750 0.06250 0.67500 0.06250 0.67500 0.12500)
		4 V(578 875 319 793) M(13) UV(0.68750 0.06250 0.68750 0.00000 0.67500 0.00000 0.67500 0.06250)
		4 V(1029 200 875 578) M(13) UV(0.70000 0.06250 0.70000 0.00000 0.68750 0.00000 0.68750 0.06250)
		4 V(240 1032 579 994) M(13) UV(0.75000 0.25000 0.75000 0.18750 0.73750 0.18750 0.73750 0.25000)
		4 V(994 579 795 270) M(13) UV(0.73750 0.25000 0.73750 0.18750 0.72500 0.18750 0.72500 0.25000)
		4 V(579 798 399 795) M(13) UV(0.73750 0.18750 0.73750 0.12500 0.72500 0.12500 0.72500 0.18750)
		4 V(1032 289 798 579) M(13) UV(0.75000 0.18750 0.75000 0.12500 0.73750 0.12500 0.73750 0.18750)
		4 V(270 795 580 993) M(13) UV(0.72500 0.25000 0.72500 0.18750 0.71250 0.18750 0.71250 0.25000)
		4 V(993 580 1030 239) M(13) UV(0.71250 0.25000 0.71250 0.18750 0.70000 0.18750 0.70000 0.25000)
		4 V(580 796 288 1030) M(13) UV(0.71250 0.18750 0.71250 0.12500 0.70000 0.12500 0.70000 0.18750)
		4 V(795 399 796 580) M(13) UV(0.72500 0.18750 0.72500 0.12500 0.71250 0.12500 0.71250 0.18750)
		4 V(399 797 581 796) M(13) UV(0.72500 0.12500 0.72500 0.06250 0.71250 0.06250 0.71250 0.12500)
		4 V(796 581 1029 288) M(13) UV(0.71250 0.12500 0.71250 0.06250 0.70000 0.06250 0.70000 0.12500)
		4 V(581 882 200 1029) M(13) UV(0.71250 0.06250 0.71250 0.00000 0.70000 0.00000 0.70000 0.06250)
		4 V(797 322 882 581) M(13) UV(0.72500 0.06250 0.72500 0.00000 0.71250 0.00000 0.71250 0.06250)
		4 V(289 1031 582 798) M(13) UV(0.75000 0.12500 0.75000 0.06250 0.73750 0.06250 0.73750 0.12500)
		4 V(798 582 797 399) M(13) UV(0.73750 0.12500 0.73750 0.06250 0.72500 0.06250 0.72500 0.12500)
		4 V(582 881 322 797) M(13) UV(0.73750 0.06250 0.73750 0.00000 0.72500 0.00000 0.72500 0.06250)
		4 V(1031 201 881 582) M(13) UV(0.75000 0.06250 0.75000 0.00000 0.73750 0.00000 0.73750 0.06250)
		4 V(241 1034 583 998) M(13) UV(0.80000 0.25000 0.80000 0.18750 0.78750 0.18750 0.78750 0.25000)
		4 V(998 583 799 272) M(13) UV(0.78750 0.25000 0.78750 0.18750 0.77500 0.18750 0.77500 0.25000)
		4 V(583 802 400 799) M(13) UV(0.78750 0.18750 0.78750 0.12500 0.77500 0.12500 0.77500 0.18750)
		4 V(1034 290 802 583) M(13) UV(0.80000 0.18750 0.80000 0.12500 0.78750 0.12500 0.78750 0.18750)
		4 V(272 799 584 997) M(13) UV(0.77500 0.25000 0.77500 0.18750 0.76250 0.18750 0.76250 0.25000)
		4 V(997 584 1032 240) M(13) UV(0.76250 0.25000 0.76250 0.18750 0.75000 0.18750 0.75000 0.25000)
		4 V(584 800 289 1032) M(13) UV(0.76250 0.18750 0.76250 0.12500 0.75000 0.12500 0.75000 0.18750)
		4 V(799 400 800 584) M(13) UV(0.77500 0.18750 0.77500 0.12500 0.76250 0.12500 0.76250 0.18750)
		4 V(400 801 585 800) M(13) UV(0.77500 0.12500 0.77500 0.06250 0.76250 0.06250 0.76250 0.12500)
		4 V(800 585 1031 289) M(13) UV(0.76250 0.12500 0.76250 0.06250 0.75000 0.06250 0.75000 0.12500)
		4 V(585 888 201 1031) M(13) UV(0.76250 0.06250 0.76250 0.00000 0.75000 0.00000 0.75000 0.06250)
		4 V(801 325 888 585) M(13) UV(0.77500 0.06250 0.77500 0.00000 0.76250 0.00000 0.76250 0.06250)
		4 V(290 1033 586 802) M(13) UV(0.80000 0.12500 0.80000 0.06250 0.78750 0.06250 0.78750 0.12500)
		4 V(802 586 801 400) M(13) UV(0.78750 0.12500 0.78750 0.06250 0.77500 0.06250 0.77500 0.12500)
		4 V(586 887 325 801) M(13) UV(0.78750 0.06250 0.78750 0.00000 0.77500 0.00000 0.77500 0.06250)
		4 V(1033 202 887 586) M(13) UV(0.80000 0.06250 0.80000 0.00000 0.78750 0.00000 0.78750 0.06250)
		4 V(242 1036 587 1002) M(13) UV(0.85000 0.25000 0.85000 0.18750 0.83750 0.18750 0.83750 0.25000)
		4 V(1002 587 803 274) M(13) UV(0.83750 0.25000 0.83750 0.18750 0.82500 0.18750 0.82500 0.25000)
		4 V(587 806 401 803) M(13) UV(0.83750 0.18750 0.83750 0.12500 0.82500 0.12500 0.82500 0.18750)
		4 V(1036 291 806 587) M(13) UV(0.85000 0.18750 0.85000 0.12500 0.83750 0.12500 0.83750 0.18750)
		4 V(274 803 588 1001) M(13) UV(0.82500 0.25000 0.82500 0.18750 0.81250 0.18750 0.81250 0.25000)
		4 V(1001 588 1034 241) M(13) UV(0.81250 0.25000 0.81250 0.18750 0.80000 0.18750 0.80000 0.25000)
		4 V(588 804 290 1034) M(13) UV(0.81250 0.18750 0.81250 0.12500 0.80000 0.12500 0.80000 0.18750)
		4 V(803 401 804 588) M(13) UV(0.82500 0.18750 0.82500 0.12500 0.81250 0.12500 0.81250 0.18750)
		4 V(401 805 589 804) M(13) UV(0.82500 0.12500 0.82500 0.06250 0.81250 0.06250 0.81250 0.12500)
		4 V(804 589 1033 290) M(13) UV(0.81250 0.12500 0.81250 0.06250 0.80000 0.06250 0.80000 0.12500)
		4 V(589 894 202 1033) M(13) UV(0.81250 0.06250 0.81250 0.00000 0.80000 0.00000 0.80000 0.06250)
		4 V(805 328 894 589) M(13) UV(0.82500 0.06250 0.82500 0.00000 0.81250 0.00000 0.81250 0.06250)
		4 V(291 1035 590 806) M(13) UV(0.85000 0.12500 0.85000 0.06250 0.83750 0.06250 0.83750 0.12500)
		4 V(806 590 805 401) M(13) UV(0.83750 0.12500 0.83750 0.06250 0.82500 0.06250 0.82500 0.12500)
		4 V(590 893 328 805) M(13) UV(0.83750 0.06250 0.83750 0.00000 0.82500 0.00000 0.82500 0.06250)
		4 V(1035 203 893 590) M(13) UV(0.85000 0.06250 0.85000 0.00000 0.83750 0.00000 0.83750 0.06250)
		4 V(243 1038 591 1006) M(13) UV(0.90000 0.25000 0.90000 0.18750 0.88750 0.18750 0.88750 0.25000)
		4 V(1006 591 807 276) M(13) UV(0.88750 0.25000 0.88750 0.18750 0.87500 0.18750 0.87500 0.25000)
		4 V(591 810 402 807) M(13) UV(0.88750 0.18750 0.88750 0.12500 0.87500 0.12500 0.87500 0.18750)
		4 V(1038 292 810 591) M(13) UV(0.90000 0.18750 0.90000 0.12500 0.88750 0.12500 0.88750 0.18750)
		4 V(276 807 592 1005) M(13) UV(0.87500 0.25000 0.87500 0.18750 0.86250 0.18750 0.86250 0.25000)
		4 V(1005 592 1036 242) M(13) UV(0.86250 0.25000 0.86250 0.18750 0.85000 0.18750 0.85000 0.25000)
		4 V(592 808 291 1036) M(13) UV(0.86250 0.18750 0.86250 0.12500 0.85000 0.12500 0.85000 0.18750)
		4 V(807 402 808 592) M(13) UV(0.87500 0.18750 0.87500 0.12500 0.86250 0.12500 0.86250 0.18750)
		4 V(402 809 593 808) M(13) UV(0.87500 0.12500 0.87500 0.06250 0.86250 0.06250 0.86250 0.12500)
		4 V(808 593 1035 291) M(13) UV(0.86250 0.12500 0.86250 0.06250 0.85000 0.06250 0.85000 0.12500)
		4 V(593 900 203 1035) M(13) UV(0.86250 0.06250 0.86250 0.00000 0.85000 0.00000 0.85000 0.06250)
		4 V(809 331 900 593) M(13) UV(0.87500 0.06250 0.87500 0.00000 0.86250 0.00000 0.86250 0.06250)
		4 V(292 1037 594 810) M(13) UV(0.90000 0.12500 0.90000 0.06250 0.88750 0.06250 0.88750 0.12500)
		4 V(810 594 809 402) M(13) UV(0.88750 0.12500 0.88750 0.06250 0.87500 0.06250 0.87500 0.12500)
		4 V(594 899 331 809) M(13) UV(0.88750 0.06250 0.88750 0.00000 0.87500 0.00000 0.87500 0.06250)
		4 V(1037 204 899 594) M(13) UV(0.90000 0.06250 0.90000 0.00000 0.88750 0.00000 0.88750 0.06250)
		4 V(244 1040 595 1010) M(13) UV(0.95000 0.25000 0.95000 0.18750 0.93750 0.18750 0.93750 0.25000)
		4 V(1010 595 811 278) M(13) UV(0.93750 0.25000 0.93750 0.18750 0.92500 0.18750 0.92500 0.25000)
		4 V(595 814 403 811) M(13) UV(0.93750 0.18750 0.93750 0.12500 0.92500 0.12500 0.92500 0.18750)
		4 V(1040 293 814 595) M(13) UV(0.95000 0.18750 0.95000 0.12500 0.93750 0.12500 0.93750 0.18750)
		4 V(278 811 596 1009) M(13) UV(0.92500 0.25000 0.92500 0.18750 0.91250 0.18750 0.91250 0.25000)
		4 V(1009 596 1038 243) M(13) UV(0.91250 0.25000 0.91250 0.18750 0.90000 0.18750 0.90000 0.25000)
		4 V(596 812 292 1038) M(13) UV(0.91250 0.18750 0.91250 0.12500 0.90000 0.12500 0.90000 0.18750)
		4 V(811 403 812 596) M(13) UV(0.92500 0.18750 0.92500 0.12500 0.91250 0.12500 0.91250 0.18750)
		4 V(403 813 597 812) M(13) UV(0.92500 0.12500 0.92500 0.06250 0.91250 0.06250 0.91250 0.12500)
		4 V(812 597 1037 292) M(13) UV(0.91250 0.12500 0.91250 0.06250 0.90000 0.06250 0.90000 0.12500)
		4 V(597 906 204 1037) M(13) UV(0.91250 0.06250 0.91250 0.00000 0.90000 0.00000 0.90000 0.06250)
		4 V(813 334 906 597) M(13) UV(0.92500 0.06250 0.92500 0.00000 0.91250 0.00000 0.91250 0.06250)
		4 V(293 1039 598 814) M(13) UV(0.95000 0.12500 0.95000 0.06250 0.93750 0.06250 0.93750 0.12500)
		4 V(814 598 813 403) M(13) UV(0.93750 0.12500 0.93750 0.06250 0.92500 0.06250 0.92500 0.12500)
		4 V(598 905 334 813) M(13) UV(0.93750 0.06250 0.93750 0.00000 0.92500 0.00000 0.92500 0.06250)
		4 V(1039 205 905 598) M(13) UV(0.95000 0.06250 0.95000 0.00000 0.93750 0.00000 0.93750 0.06250)
		4 V(232 1042 599 1014) M(13) UV(1.00000 0.25000 1.00000 0.18750 0.98750 0.18750 0.98711 0.25391)
		4 V(1014 599 815 280) M(13) UV(0.98711 0.25391 0.98750 0.18750 0.97500 0.18750 0.97490 0.25098)
		4 V(599 818 404 815) M(13) UV(0.98750 0.18750 0.98750 0.12500 0.97500 0.12500 0.97500 0.18750)
		4 V(1042 294 818 599) M(13) UV(1.00000 0.18750 1.00000 0.12500 0.98750 0.12500 0.98750 0.18750)
		4 V(280 815 600 1013) M(13) UV(0.97490 0.25098 0.97500 0.18750 0.96250 0.18750 0.96250 0.25000)
		4 V(1013 600 1040 244) M(13) UV(0.96250 0.25000 0.96250 0.18750 0.95000 0.18750 0.95000 0.25000)
		4 V(600 816 293 1040) M(13) UV(0.96250 0.18750 0.96250 0.12500 0.95000 0.12500 0.95000 0.18750)
		4 V(815 404 816 600) M(13) UV(0.97500 0.18750 0.97500 0.12500 0.96250 0.12500 0.96250 0.18750)
		4 V(404 817 601 816) M(13) UV(0.97500 0.12500 0.97500 0.06250 0.96250 0.06250 0.96250 0.12500)
		4 V(816 601 1039 293) M(13) UV(0.96250 0.12500 0.96250 0.06250 0.95000 0.06250 0.95000 0.12500)
		4 V(601 912 205 1039) M(13) UV(0.96250 0.06250 0.96250 0.00000 0.95000 0.00000 0.95000 0.06250)
		4 V(817 337 912 601) M(13) UV(0.97500 0.06250 0.97500 0.00000 0.96250 0.00000 0.96250 0.06250)
		4 V(294 1041 602 818) M(13) UV(1.00000 0.12500 1.00000 0.06250 0.98750 0.06250 0.98750 0.12500)
		4 V(818 602 817 404) M(13) UV(0.98750 0.12500 0.98750 0.06250 0.97500 0.06250 0.97500 0.12500)
		4 V(602 911 337 817) M(13) UV(0.98750 0.06250 0.98750 0.00000 0.97500 0.00000 0.97500 0.06250)
		4 V(1041 193 911 602) M(13) UV(1.00000 0.06250 1.00000 0.00000 0.98750 0.00000 0.98750 0.06250)
		4 V(206 915 603 966) M(13) UV(0.98773 0.73032 0.98997 0.76042 0.99410 0.69965 0.98997 0.68620)
		4 V(966 603 819 256) M(13) UV(0.98997 0.68620 0.99410 0.69965 0.99549 0.62500 0.99108 0.62500)
		4 V(603 822 405 819) M(13) UV(0.99410 0.69965 0.99657 0.72569 0.99790 0.62500 0.99549 0.62500)
		4 V(915 339 822 603) M(13) UV(0.98997 0.76042 0.99222 0.80729 0.99657 0.72569 0.99410 0.69965)
		4 V(256 819 604 965) M(13) UV(0.99108 0.62500 0.99549 0.62500 0.99410 0.55035 0.98997 0.56380)
		4 V(965 604 1016 219) M(13) UV(0.98997 0.56380 0.99410 0.55035 0.98997 0.48958 0.98773 0.51968)
		4 V(604 820 281 1016) M(13) UV(0.99410 0.55035 0.99657 0.52431 0.99222 0.44271 0.98997 0.48958)
		4 V(819 405 820 604) M(13) UV(0.99549 0.62500 0.99790 0.62500 0.99657 0.52431 0.99410 0.55035)
		4 V(405 821 605 820) M(13) UV(0.99790 0.62500 0.99922 0.62500 0.99844 0.48438 0.99657 0.52431)
		4 V(820 605 1015 281) M(13) UV(0.99657 0.52431 0.99844 0.48438 0.99453 0.37500 0.99222 0.44271)
		4 V(605 1042 232 1015) M(13) UV(0.99844 0.48438 1.00000 0.43750 1.00000 0.25000 0.99453 0.37500)
		4 V(821 294 1042 605) M(13) UV(0.99922 0.62500 1.00000 0.62500 1.00000 0.43750 0.99844 0.48438)
		4 V(339 916 606 822) M(13) UV(0.99222 0.80729 0.99453 0.87500 0.99844 0.76562 0.99657 0.72569)
		4 V(822 606 821 405) M(13) UV(0.99657 0.72569 0.99844 0.76562 0.99922 0.62500 0.99790 0.62500)
		4 V(606 1041 294 821) M(13) UV(0.99844 0.76562 1.00000 0.81250 1.00000 0.62500 0.99922 0.62500)
		4 V(916 193 1041 606) M(13) UV(0.99453 0.87500 1.00000 1.00000 1.00000 0.81250 0.99844 0.76562)
		4 V(246 1050 607 1043) M(13) UV(0.40000 0.52431 0.40000 0.53906 0.40000 0.46354 0.40000 0.46484)
		4 V(1043 607 823 295) M(13) UV(0.40000 0.46484 0.40000 0.46354 0.40000 0.37500 0.40000 0.37500)
		4 V(607 826 406 823) M(13) UV(0.40000 0.46354 0.40000 0.46267 0.40000 0.37500 0.40000 0.37500)
		4 V(1050 298 826 607) M(13) UV(0.40000 0.53906 0.40000 0.53581 0.40000 0.46267 0.40000 0.46354)
		4 V(295 823 608 1044) M(13) UV(0.40000 0.37500 0.40000 0.37500 0.40000 0.28646 0.40000 0.28516)
		4 V(1044 608 1045 245) M(13) UV(0.40000 0.28516 0.40000 0.28646 0.40000 0.21094 0.40000 0.22569)
		4 V(608 824 296 1045) M(13) UV(0.40000 0.28646 0.40000 0.28733 0.40000 0.21419 0.40000 0.21094)
		4 V(823 406 824 608) M(13) UV(0.40000 0.37500 0.40000 0.37500 0.40000 0.28733 0.40000 0.28646)
		4 V(406 825 609 824) M(13) UV(0.40000 0.37500 0.40000 0.37500 0.40000 0.30035 0.40000 0.28733)
		4 V(824 609 1046 296) M(13) UV(0.40000 0.28733 0.40000 0.30035 0.40000 0.23958 0.40000 0.21419)
		4 V(609 1047 247 1046) M(13) UV(0.40000 0.30035 0.40000 0.31380 0.40000 0.26968 0.40000 0.23958)
		4 V(825 297 1047 609) M(13) UV(0.40000 0.37500 0.40000 0.37500 0.40000 0.31380 0.40000 0.30035)
		4 V(298 1049 610 826) M(13) UV(0.40000 0.53581 0.40000 0.51042 0.40000 0.44965 0.40000 0.46267)
		4 V(826 610 825 406) M(13) UV(0.40000 0.46267 0.40000 0.44965 0.40000 0.37500 0.40000 0.37500)
		4 V(610 1048 297 825) M(13) UV(0.40000 0.44965 0.40000 0.43620 0.40000 0.37500 0.40000 0.37500)
		4 V(1049 248 1048 610) M(13) UV(0.40000 0.51042 0.40000 0.48032 0.40000 0.43620 0.40000 0.44965)
		4 V(207 1054 611 846) M(13) UV(0.40000 0.75000 0.40039 0.64062 0.40000 0.53125 0.40000 0.56250)
		4 V(846 611 827 304) M(13) UV(0.40000 0.56250 0.40000 0.53125 0.40000 0.37500 0.40000 0.37500)
		4 V(611 830 407 827) M(13) UV(0.40000 0.53125 0.40000 0.50260 0.40000 0.37500 0.40000 0.37500)
		4 V(1054 300 830 611) M(13) UV(0.40039 0.64062 0.40010 0.59668 0.40000 0.50260 0.40000 0.53125)
		4 V(304 827 612 845) M(13) UV(0.40000 0.37500 0.40000 0.37500 0.40000 0.21875 0.40000 0.18750)
		4 V(845 612 1051 194) M(13) UV(0.40000 0.18750 0.40000 0.21875 0.40039 0.10938 0.40000 0.00000)
		4 V(612 828 299 1051) M(13) UV(0.40000 0.21875 0.40000 0.24740 0.40010 0.15332 0.40039 0.10938)
		4 V(827 407 828 612) M(13) UV(0.40000 0.37500 0.40000 0.37500 0.40000 0.24740 0.40000 0.21875)
		4 V(407 829 613 828) M(13) UV(0.40000 0.37500 0.40000 0.37500 0.40000 0.27083 0.40000 0.24740)
		4 V(828 613 1052 299) M(13) UV(0.40000 0.24740 0.40000 0.27083 0.40000 0.19141 0.40010 0.15332)
		4 V(613 1044 245 1052) M(13) UV(0.40000 0.27083 0.40000 0.28516 0.40000 0.22569 0.40000 0.19141)
		4 V(829 295 1044 613) M(13) UV(0.40000 0.37500 0.40000 0.37500 0.40000 0.28516 0.40000 0.27083)
		4 V(300 1053 614 830) M(13) UV(0.40010 0.59668 0.40000 0.55859 0.40000 0.47917 0.40000 0.50260)
		4 V(830 614 829 407) M(13) UV(0.40000 0.50260 0.40000 0.47917 0.40000 0.37500 0.40000 0.37500)
		4 V(614 1043 295 829) M(13) UV(0.40000 0.47917 0.40000 0.46484 0.40000 0.37500 0.40000 0.37500)
		4 V(1053 246 1043 614) M(13) UV(0.40000 0.55859 0.40000 0.52431 0.40000 0.46484 0.40000 0.47917)
		4 V(194 1051 615 1018) M(13) UV(0.40000 0.00000 0.40039 0.10938 0.40156 0.09375 0.40547 0.07031)
		4 V(1018 615 831 282) M(13) UV(0.40547 0.07031 0.40156 0.09375 0.40273 0.13281 0.40723 0.12695)
		4 V(615 834 408 831) M(13) UV(0.40156 0.09375 0.40039 0.12630 0.40068 0.14605 0.40273 0.13281)
		4 V(1051 299 834 615) M(13) UV(0.40039 0.10938 0.40010 0.15332 0.40039 0.12630 0.40156 0.09375)
		4 V(282 831 616 1017) M(13) UV(0.40723 0.12695 0.40273 0.13281 0.40312 0.18750 0.40781 0.18750)
		4 V(1017 616 1055 233) M(13) UV(0.40781 0.18750 0.40312 0.18750 0.40312 0.25000 0.40781 0.25000)
		4 V(616 832 301 1055) M(13) UV(0.40312 0.18750 0.40078 0.19227 0.40078 0.25228 0.40312 0.25000)
		4 V(831 408 832 616) M(13) UV(0.40273 0.13281 0.40068 0.14605 0.40078 0.19227 0.40312 0.18750)
		4 V(408 833 617 832) M(13) UV(0.40068 0.14605 0.40000 0.17014 0.40000 0.20660 0.40078 0.19227)
		4 V(832 617 1056 301) M(13) UV(0.40078 0.19227 0.40000 0.20660 0.40000 0.25912 0.40078 0.25228)
		4 V(617 1046 247 1056) M(13) UV(0.40000 0.20660 0.40000 0.23958 0.40000 0.26968 0.40000 0.25912)
		4 V(833 296 1046 617) M(13) UV(0.40000 0.17014 0.40000 0.21419 0.40000 0.23958 0.40000 0.20660)
		4 V(299 1052 618 834) M(13) UV(0.40010 0.15332 0.40000 0.19141 0.40000 0.16146 0.40039 0.12630)
		4 V(834 618 833 408) M(13) UV(0.40039 0.12630 0.40000 0.16146 0.40000 0.17014 0.40068 0.14605)
		4 V(618 1045 296 833) M(13) UV(0.40000 0.16146 0.40000 0.21094 0.40000 0.21419 0.40000 0.17014)
		4 V(1052 245 1045 618) M(13) UV(0.40000 0.19141 0.40000 0.22569 0.40000 0.21094 0.40000 0.16146)
		4 V(233 1055 619 968) M(13) UV(0.40781 0.25000 0.40312 0.25000 0.40312 0.31250 0.40781 0.31250)
		4 V(968 619 835 257) M(13) UV(0.40781 0.31250 0.40312 0.31250 0.40312 0.37500 0.40781 0.37500)
		4 V(619 838 409 835) M(13) UV(0.40312 0.31250 0.40078 0.31337 0.40078 0.37500 0.40312 0.37500)
		4 V(1055 301 838 619) M(13) UV(0.40312 0.25000 0.40078 0.25228 0.40078 0.31337 0.40312 0.31250)
		4 V(257 835 620 967) M(13) UV(0.40781 0.37500 0.40312 0.37500 0.40312 0.43750 0.40781 0.43750)
		4 V(967 620 1057 220) M(13) UV(0.40781 0.43750 0.40312 0.43750 0.40312 0.50000 0.40781 0.50000)
		4 V(620 836 302 1057) M(13) UV(0.40312 0.43750 0.40078 0.43663 0.40078 0.49772 0.40312 0.50000)
		4 V(835 409 836 620) M(13) UV(0.40312 0.37500 0.40078 0.37500 0.40078 0.43663 0.40312 0.43750)
		4 V(409 837 621 836) M(13) UV(0.40078 0.37500 0.40000 0.37500 0.40000 0.43403 0.40078 0.43663)
		4 V(836 621 1058 302) M(13) UV(0.40078 0.43663 0.40000 0.43403 0.40000 0.49088 0.40078 0.49772)
		4 V(621 1048 248 1058) M(13) UV(0.40000 0.43403 0.40000 0.43620 0.40000 0.48032 0.40000 0.49088)
		4 V(837 297 1048 621) M(13) UV(0.40000 0.37500 0.40000 0.37500 0.40000 0.43620 0.40000 0.43403)
		4 V(301 1056 622 838) M(13) UV(0.40078 0.25228 0.40000 0.25912 0.40000 0.31597 0.40078 0.31337)
		4 V(838 622 837 409) M(13) UV(0.40078 0.31337 0.40000 0.31597 0.40000 0.37500 0.40078 0.37500)
		4 V(622 1047 297 837) M(13) UV(0.40000 0.31597 0.40000 0.31380 0.40000 0.37500 0.40000 0.37500)
		4 V(1056 247 1047 622) M(13) UV(0.40000 0.25912 0.40000 0.26968 0.40000 0.31380 0.40000 0.31597)
		4 V(220 1057 623 918) M(13) UV(0.40781 0.50000 0.40312 0.50000 0.40312 0.56250 0.40781 0.56250)
		4 V(918 623 839 340) M(13) UV(0.40781 0.56250 0.40312 0.56250 0.40273 0.61719 0.40723 0.62305)
		4 V(623 842 410 839) M(13) UV(0.40312 0.56250 0.40078 0.55773 0.40068 0.60395 0.40273 0.61719)
		4 V(1057 302 842 623) M(13) UV(0.40312 0.50000 0.40078 0.49772 0.40078 0.55773 0.40312 0.56250)
		4 V(340 839 624 917) M(13) UV(0.40723 0.62305 0.40273 0.61719 0.40156 0.65625 0.40547 0.67969)
		4 V(917 624 1054 207) M(13) UV(0.40547 0.67969 0.40156 0.65625 0.40039 0.64062 0.40000 0.75000)
		4 V(624 840 300 1054) M(13) UV(0.40156 0.65625 0.40039 0.62370 0.40010 0.59668 0.40039 0.64062)
		4 V(839 410 840 624) M(13) UV(0.40273 0.61719 0.40068 0.60395 0.40039 0.62370 0.40156 0.65625)
		4 V(410 841 625 840) M(13) UV(0.40068 0.60395 0.40000 0.57986 0.40000 0.58854 0.40039 0.62370)
		4 V(840 625 1053 300) M(13) UV(0.40039 0.62370 0.40000 0.58854 0.40000 0.55859 0.40010 0.59668)
		4 V(625 1050 246 1053) M(13) UV(0.40000 0.58854 0.40000 0.53906 0.40000 0.52431 0.40000 0.55859)
		4 V(841 298 1050 625) M(13) UV(0.40000 0.57986 0.40000 0.53581 0.40000 0.53906 0.40000 0.58854)
		4 V(302 1058 626 842) M(13) UV(0.40078 0.49772 0.40000 0.49088 0.40000 0.54340 0.40078 0.55773)
		4 V(842 626 841 410) M(13) UV(0.40078 0.55773 0.40000 0.54340 0.40000 0.57986 0.40068 0.60395)
		4 V(626 1049 298 841) M(13) UV(0.40000 0.54340 0.40000 0.51042 0.40000 0.53581 0.40000 0.57986)
		4 V(1058 248 1049 626) M(13) UV(0.40000 0.49088 0.40000 0.48032 0.40000 0.51042 0.40000 0.54340)
		3 V(1059 1060 1061) M(12) UV(1.00000 0.50000 0.83810 0.67621 1.08810 0.82379)
		3 V(1059 1061 1062) M(12) UV(1.00000 0.50000 1.08810 0.82379 1.17621 0.50000)
		3 V(1059 1062 1063) M(12) UV(1.00000 0.50000 1.17621 0.50000 1.08810 0.17621)
		3 V(1059 1063 1064) M(12) UV(1.00000 0.50000 1.08810 0.17621 0.83810 0.32379)
		3 V(1059 1064 1060) M(12) UV(1.00000 0.50000 0.83810 0.32379 0.83810 0.67621)
		3 V(1060 1066 1061) M(12) UV(0.83810 0.67621 0.58810 0.82379 1.08810 0.82379)
		3 V(1061 1067 1062) M(12) UV(0.08810 0.82379 0.33810 0.67621 0.17621 0.50000)
		3 V(1062 1068 1063) M(12) UV(0.17621 0.50000 0.33810 0.32379 0.08810 0.17621)
		3 V(1063 1069 1064) M(12) UV(1.08810 0.17621 0.58810 0.17621 0.83810 0.32379)
		3 V(1064 1065 1060) M(12) UV(0.83810 0.32379 0.67621 0.50000 0.83810 0.67621)
		3 V(1060 1065 1066) M(12) UV(0.83810 0.67621 0.67621 0.50000 0.58810 0.82379)
		3 V(1061 1066 1067) M(12) UV(0.08810 0.82379 0.58810 0.82379 0.33810 0.67621)
		3 V(1062 1067 1068) M(12) UV(0.17621 0.50000 0.33810 0.67621 0.33810 0.32379)
		3 V(1063 1068 1069) M(12) UV(0.08810 0.17621 0.33810 0.32379 0.58810 0.17621)
		3 V(1064 1069 1065) M(12) UV(0.83810 0.32379 0.58810 0.17621 0.67621 0.50000)
		3 V(1065 1070 1066) M(12) UV(0.67621 0.50000 0.50000 0.50000 0.58810 0.82379)
		3 V(1066 1070 1067) M(12) UV(0.58810 0.82379 0.50000 0.50000 0.33810 0.67621)
		3 V(1067 1070 1068) M(12) UV(0.33810 0.67621 0.50000 0.50000 0.33810 0.32379)
		3 V(1068 1070 1069) M(12) UV(0.33810 0.32379 0.50000 0.50000 0.58810 0.17621)
		3 V(1069 1070 1065) M(12) UV(0.58810 0.17621 0.50000 0.50000 0.67621 0.50000)
		4 V(1079 1080 1110 1109) M(13) UV(0.63750 0.50000 0.61250 0.50000 0.51875 0.25000 0.53125 0.25000)
		4 V(1081 1092 1110 1080) M(13) UV(0.57500 0.50000 0.48750 0.25000 0.50000 0.25000 0.60000 0.50000)
		4 V(1081 1082 1093 1092) M(13) UV(0.56250 0.50000 0.53750 0.50000 0.45625 0.25000 0.46875 0.25000)
		4 V(1082 1083 1094 1093) M(13) UV(0.52500 0.50000 0.50000 0.50000 0.42500 0.25000 0.43750 0.25000)
		4 V(1083 1084 1095 1094) M(13) UV(0.48750 0.50000 0.46250 0.50000 0.39375 0.25000 0.40625 0.25000)
		4 V(1085 1086 1096 1129) M(13) UV(0.41250 0.50000 0.38750 0.50000 0.33125 0.25000 0.34375 0.25000)
		4 V(1086 1087 1097 1096) M(13) UV(0.37500 0.50000 0.35000 0.50000 0.30000 0.25000 0.31250 0.25000)
		4 V(1098 1097 1087 1088) M(13) UV(0.26875 0.25000 0.28125 0.25000 0.33750 0.50000 0.31250 0.50000)
		4 V(1088 1089 1099 1098) M(13) UV(0.30000 0.50000 0.27500 0.50000 0.23750 0.25000 0.25000 0.25000)
		4 V(1089 1090 1100 1099) M(13) UV(0.26250 0.50000 0.23750 0.50000 0.20625 0.25000 0.21875 0.25000)
		4 V(1090 1091 1101 1100) M(13) UV(0.22500 0.50000 0.20000 0.50000 0.17500 0.25000 0.18750 0.25000)
		4 V(1102 1101 1091 1072) M(13) UV(0.14375 0.25000 0.15625 0.25000 0.18750 0.50000 0.16250 0.50000)
		4 V(1072 1073 1103 1102) M(13) UV(0.15000 0.50000 0.12500 0.50000 0.11250 0.25000 0.12500 0.25000)
		4 V(1073 1074 1104 1103) M(13) UV(0.11250 0.50000 0.08750 0.50000 0.08125 0.25000 0.09375 0.25000)
		4 V(1105 1104 1074 1075) M(13) UV(0.05000 0.25000 0.06250 0.25000 0.07500 0.50000 0.05000 0.50000)
		4 V(1075 1076 1106 1105) M(13) UV(0.03750 0.50000 0.01250 0.50000 0.01875 0.25000 0.03125 0.25000)
		4 V(1076 1077 1107 1106) M(13) UV(0.75000 0.50000 0.72500 0.50000 0.61250 0.25000 0.62500 0.25000)
		4 V(1077 1078 1108 1107) M(13) UV(0.71250 0.50000 0.68750 0.50000 0.58125 0.25000 0.59375 0.25000)
		4 V(1078 1079 1109 1108) M(13) UV(0.67500 0.50000 0.65000 0.50000 0.55000 0.25000 0.56250 0.25000)
		4 V(1086 1085 1131 1111) M(13) UV(0.38750 0.50000 0.41250 0.50000 0.48125 0.75000 0.44375 0.75000)
		4 V(1131 155 156 1111) M(13) UV(0.48125 0.75000 0.55000 1.00000 0.50000 1.00000 0.44375 0.75000)
		4 V(1112 1087 1086 1111) M(13) UV(0.40000 0.75000 0.35000 0.50000 0.37500 0.50000 0.43750 0.75000)
		4 V(156 157 1112 1111) M(13) UV(0.50000 1.00000 0.45000 1.00000 0.40000 0.75000 0.43750 0.75000)
		4 V(157 158 1113 1112) M(13) UV(0.45000 1.00000 0.40000 1.00000 0.35625 0.75000 0.39375 0.75000)
		4 V(1087 1112 1113 1088) M(13) UV(0.33750 0.50000 0.39375 0.75000 0.35625 0.75000 0.31250 0.50000)
		4 V(1114 1089 1088 1113) M(13) UV(0.31250 0.75000 0.27500 0.50000 0.30000 0.50000 0.35000 0.75000)
		4 V(1114 1113 158 159) M(13) UV(0.31250 0.75000 0.35000 0.75000 0.40000 1.00000 0.35000 1.00000)
		4 V(159 160 1115 1114) M(13) UV(0.35000 1.00000 0.30000 1.00000 0.26875 0.75000 0.30625 0.75000)
		4 V(1089 1114 1115 1090) M(13) UV(0.26250 0.50000 0.30625 0.75000 0.26875 0.75000 0.23750 0.50000)
		4 V(160 141 1116 1115) M(13) UV(0.30000 1.00000 0.25000 1.00000 0.22500 0.75000 0.26250 0.75000)
		4 V(1090 1115 1116 1091) M(13) UV(0.22500 0.50000 0.26250 0.75000 0.22500 0.75000 0.20000 0.50000)
		4 V(1091 1116 1117 1072) M(13) UV(0.18750 0.50000 0.21875 0.75000 0.18125 0.75000 0.16250 0.50000)
		4 V(141 142 1117 1116) M(13) UV(0.25000 1.00000 0.20000 1.00000 0.18125 0.75000 0.21875 0.75000)
		4 V(1118 1117 142 143) M(13) UV(0.13750 0.75000 0.17500 0.75000 0.20000 1.00000 0.15000 1.00000)
		4 V(1118 1073 1072 1117) M(13) UV(0.13750 0.75000 0.12500 0.50000 0.15000 0.50000 0.17500 0.75000)
		4 V(1073 1118 1119 1074) M(13) UV(0.11250 0.50000 0.13125 0.75000 0.09375 0.75000 0.08750 0.50000)
		4 V(143 144 1119 1118) M(13) UV(0.15000 1.00000 0.10000 1.00000 0.09375 0.75000 0.13125 0.75000)
		4 V(1120 1075 1074 1119) M(13) UV(0.05000 0.75000 0.05000 0.50000 0.07500 0.50000 0.08750 0.75000)
		4 V(144 145 1120 1119) M(13) UV(0.10000 1.00000 0.05000 1.00000 0.05000 0.75000 0.08750 0.75000)
		4 V(1075 1120 1121 1076) M(13) UV(0.03750 0.50000 0.04375 0.75000 0.00625 0.75000 0.01250 0.50000)
		4 V(145 146 1121 1120) M(13) UV(0.05000 1.00000 0.00000 1.00000 0.00625 0.75000 0.04375 0.75000)
		4 V(146 147 1122 1121) M(13) UV(1.00000 1.00000 0.95000 1.00000 0.83750 0.75000 0.87500 0.75000)
		4 V(1076 1121 1122 1077) M(13) UV(0.75000 0.50000 0.87500 0.75000 0.83750 0.75000 0.72500 0.50000)
		4 V(1077 1122 1123 1078) M(13) UV(0.71250 0.50000 0.83125 0.75000 0.79375 0.75000 0.68750 0.50000)
		4 V(147 148 1123 1122) M(13) UV(0.95000 1.00000 0.90000 1.00000 0.79375 0.75000 0.83125 0.75000)
		4 V(148 149 1124 1123) M(13) UV(0.90000 1.00000 0.85000 1.00000 0.75000 0.75000 0.78750 0.75000)
		4 V(1078 1123 1124 1079) M(13) UV(0.67500 0.50000 0.78750 0.75000 0.75000 0.75000 0.65000 0.50000)
		4 V(1079 1124 1125 1080) M(13) UV(0.63750 0.50000 0.74375 0.75000 0.70625 0.75000 0.61250 0.50000)
		4 V(1125 1124 149 150) M(13) UV(0.70625 0.75000 0.74375 0.75000 0.85000 1.00000 0.80000 1.00000)
		4 V(150 151 1126 1125) M(13) UV(0.80000 1.00000 0.75000 1.00000 0.66250 0.75000 0.70000 0.75000)
		4 V(1126 1081 1080 1125) M(13) UV(0.66250 0.75000 0.57500 0.50000 0.60000 0.50000 0.70000 0.75000)
		4 V(1081 1126 1127 1082) M(13) UV(0.56250 0.50000 0.65625 0.75000 0.61875 0.75000 0.53750 0.50000)
		4 V(151 152 1127 1126) M(13) UV(0.75000 1.00000 0.70000 1.00000 0.61875 0.75000 0.65625 0.75000)
		4 V(152 153 1128 1127) M(13) UV(0.70000 1.00000 0.65000 1.00000 0.57500 0.75000 0.61250 0.75000)
		4 V(1082 1127 1128 1083) M(13) UV(0.52500 0.50000 0.61250 0.75000 0.57500 0.75000 0.50000 0.50000)
		4 V(1083 1128 1130 1084) M(13) UV(0.48750 0.50000 0.56875 0.75000 0.53125 0.75000 0.46250 0.50000)
		4 V(1130 1128 153 154) M(13) UV(0.53125 0.75000 0.56875 0.75000 0.65000 1.00000 0.60000 1.00000)
		4 V(1131 1130 154 155) M(13) UV(0.48750 0.75000 0.52500 0.75000 0.60000 1.00000 0.55000 1.00000)
		4 V(1084 1130 1131 1085) M(13) UV(0.45000 0.50000 0.52500 0.75000 0.48750 0.75000 0.42500 0.50000)
		4 V(1095 1084 1085 1129) M(13) UV(0.37500 0.25000 0.45000 0.50000 0.42500 0.50000 0.36875 0.25000)
		3 V(1133 1071 1132) M(12) UV(0.41563 0.12500 0.37500 0.00000 0.42188 0.12500)
		3 V(1134 1071 1133) M(12) UV(0.38750 0.12500 0.35000 0.00000 0.39375 0.12500)
		3 V(1135 1071 1134) M(12) UV(0.35938 0.12500 0.32500 0.00000 0.36563 0.12500)
		3 V(1136 1071 1135) M(12) UV(0.33438 0.12500 0.30000 0.00000 0.33750 0.12500)
		3 V(1137 1071 1136) M(12) UV(0.30313 0.12500 0.27500 0.00000 0.30938 0.12500)
		3 V(1138 1071 1137) M(12) UV(0.27500 0.12500 0.25000 0.00000 0.28125 0.12500)
		3 V(1139 1071 1138) M(12) UV(0.24688 0.12500 0.22500 0.00000 0.25313 0.12500)
		3 V(1140 1071 1139) M(12) UV(0.21875 0.12500 0.20000 0.00000 0.22500 0.12500)
		3 V(1141 1071 1140) M(12) UV(0.19063 0.12500 0.17500 0.00000 0.19688 0.12500)
		3 V(1142 1071 1141) M(12) UV(0.16250 0.12500 0.15000 0.00000 0.16875 0.12500)
		3 V(1143 1071 1142) M(12) UV(0.13438 0.12500 0.12500 0.00000 0.14062 0.12500)
		3 V(1144 1071 1143) M(12) UV(0.10625 0.12500 0.10000 0.00000 0.11250 0.12500)
		3 V(1145 1071 1144) M(12) UV(0.07812 0.12500 0.07500 0.00000 0.08438 0.12500)
		3 V(1146 1071 1145) M(12) UV(0.05000 0.12500 0.05000 0.00000 0.05625 0.12500)
		3 V(1147 1071 1146) M(12) UV(0.02187 0.12500 0.02500 0.00000 0.02813 0.12500)
		3 V(1148 1071 1147) M(12) UV(0.55625 0.12500 0.50000 0.00000 0.56250 0.12500)
		3 V(1149 1071 1148) M(12) UV(0.52813 0.12500 0.47500 0.00000 0.53438 0.12500)
		3 V(1150 1071 1149) M(12) UV(0.50000 0.12500 0.45000 0.00000 0.50625 0.12500)
		3 V(1151 1132 1071) M(12) UV(0.45000 0.12500 0.44375 0.12500 0.40000 0.00000)
		3 V(1151 1071 1150) M(12) UV(0.47188 0.12500 0.42500 0.00000 0.47813 0.12500)
		4 V(1109 1110 1151 1150) M(12) UV(0.53125 0.25000 0.51875 0.25000 0.47188 0.12500 0.47813 0.12500)
		4 V(1092 1132 1151 1110) M(12) UV(0.48750 0.25000 0.44375 0.12500 0.45000 0.12500 0.50000 0.25000)
		4 V(1133 1132 1092 1093) M(12) UV(0.41563 0.12500 0.42188 0.12500 0.46875 0.25000 0.45625 0.25000)
		4 V(1093 1094 1134 1133) M(12) UV(0.43750 0.25000 0.42500 0.25000 0.38750 0.12500 0.39375 0.12500)
		4 V(1094 1095 1135 1134) M(12) UV(0.40625 0.25000 0.39375 0.25000 0.35938 0.12500 0.36563 0.12500)
		4 V(1095 1129 1136 1135) M(12) UV(0.37500 0.25000 0.36875 0.25000 0.33438 0.12500 0.33750 0.12500)
		4 V(1129 1096 1137 1136) M(12) UV(0.34375 0.25000 0.33125 0.25000 0.30313 0.12500 0.30938 0.12500)
		4 V(1096 1097 1138 1137) M(12) UV(0.31250 0.25000 0.30000 0.25000 0.27500 0.12500 0.28125 0.12500)
		4 V(1139 1138 1097 1098) M(12) UV(0.24688 0.12500 0.25313 0.12500 0.28125 0.25000 0.26875 0.25000)
		4 V(1140 1139 1098 1099) M(12) UV(0.21875 0.12500 0.22500 0.12500 0.25000 0.25000 0.23750 0.25000)
		4 V(1099 1100 1141 1140) M(12) UV(0.21875 0.25000 0.20625 0.25000 0.19063 0.12500 0.19688 0.12500)
		4 V(1100 1101 1142 1141) M(12) UV(0.18750 0.25000 0.17500 0.25000 0.16250 0.12500 0.16875 0.12500)
		4 V(1101 1102 1143 1142) M(12) UV(0.15625 0.25000 0.14375 0.25000 0.13438 0.12500 0.14062 0.12500)
		4 V(1144 1143 1102 1103) M(12) UV(0.10625 0.12500 0.11250 0.12500 0.12500 0.25000 0.11250 0.25000)
		4 V(1103 1104 1145 1144) M(12) UV(0.09375 0.25000 0.08125 0.25000 0.07812 0.12500 0.08438 0.12500)
		4 V(1104 1105 1146 1145) M(12) UV(0.06250 0.25000 0.05000 0.25000 0.05000 0.12500 0.05625 0.12500)
		4 V(1147 1146 1105 1106) M(12) UV(0.02187 0.12500 0.02813 0.12500 0.03125 0.25000 0.01875 0.25000)
		4 V(1106 1107 1148 1147) M(12) UV(0.62500 0.25000 0.61250 0.25000 0.55625 0.12500 0.56250 0.12500)
		4 V(1149 1148 1107 1108) M(12) UV(0.52813 0.12500 0.53438 0.12500 0.59375 0.25000 0.58125 0.25000)
		4 V(1108 1109 1150 1149) M(12) UV(0.56250 0.25000 0.55000 0.25000 0.50000 0.12500 0.50625 0.12500)
		4 V(1152 161 165 1153) M(10) UV(0.87500 1.00000 1.00000 1.00000 1.00000 0.75000 0.87500 0.75000)
		4 V(1152 1153 168 164) M(10) UV(0.87500 1.00000 0.87500 0.75000 0.75000 0.75000 0.75000 1.00000)
		4 V(1152 164 192 1154) M(10) UV(0.87500 0.00000 0.75000 0.00000 0.75000 0.00000 0.87500 0.00000)
		4 V(1152 1154 187 161) M(10) UV(0.87500 0.00000 0.87500 0.00000 1.00000 0.00000 1.00000 0.00000)
		4 V(1153 165 177 1155) M(10) UV(0.87500 0.75000 1.00000 0.75000 1.00000 0.75000 0.87500 0.75000)
		4 V(1153 1155 183 168) M(10) UV(0.87500 0.75000 0.87500 0.75000 0.75000 0.75000 0.75000 0.75000)
		4 V(1154 192 191 1156) M(10) UV(0.87500 0.00000 0.75000 0.00000 0.75000 0.25000 0.87500 0.25000)
		4 V(1154 1156 185 187) M(10) UV(0.87500 0.00000 0.87500 0.25000 1.00000 0.25000 1.00000 0.00000)
		4 V(1155 177 179 1157) M(10) UV(0.87500 0.75000 1.00000 0.75000 1.00000 0.50000 0.87500 0.50000)
		4 V(1155 1157 184 183) M(10) UV(0.87500 0.75000 0.87500 0.50000 0.75000 0.50000 0.75000 0.75000)
		4 V(1156 191 176 1158) M(10) UV(0.87500 0.25000 0.75000 0.25000 0.75000 0.25000 0.87500 0.25000)
		4 V(1156 1158 173 185) M(10) UV(0.87500 0.25000 0.87500 0.25000 1.00000 0.25000 1.00000 0.25000)
		4 V(1157 179 169 1159) M(10) UV(0.87500 0.50000 1.00000 0.50000 1.00000 0.50000 0.87500 0.50000)
		4 V(1157 1159 172 184) M(10) UV(0.87500 0.50000 0.87500 0.50000 0.75000 0.50000 0.75000 0.50000)
		4 V(1158 176 172 1159) M(10) UV(0.87500 0.25000 0.75000 0.25000 0.75000 0.50000 0.87500 0.50000)
		4 V(1158 1159 169 173) M(10) UV(0.87500 0.25000 0.87500 0.50000 1.00000 0.50000 1.00000 0.25000)
		4 V(1160 164 168 1161) M(10) UV(0.62500 1.00000 0.75000 1.00000 0.75000 0.75000 0.62500 0.75000)
		4 V(1160 1161 167 163) M(10) UV(0.62500 1.00000 0.62500 0.75000 0.50000 0.75000 0.50000 1.00000)
		4 V(1160 163 190 1162) M(10) UV(0.62500 0.00000 0.50000 0.00000 0.50000 0.00000 0.62500 0.00000)
		4 V(1160 1162 192 164) M(10) UV(0.62500 0.00000 0.62500 0.00000 0.75000 0.00000 0.75000 0.00000)
		4 V(1161 168 183 1163) M(10) UV(0.62500 0.75000 0.75000 0.75000 0.75000 0.75000 0.62500 0.75000)
		4 V(1161 1163 181 167) M(10) UV(0.62500 0.75000 0.62500 0.75000 0.50000 0.75000 0.50000 0.75000)
		4 V(1162 190 189 1164) M(10) UV(0.62500 0.00000 0.50000 0.00000 0.50000 0.25000 0.62500 0.25000)
		4 V(1162 1164 191 192) M(10) UV(0.62500 0.00000 0.62500 0.25000 0.75000 0.25000 0.75000 0.00000)
		4 V(1163 183 184 1165) M(10) UV(0.62500 0.75000 0.75000 0.75000 0.75000 0.50000 0.62500 0.50000)
		4 V(1163 1165 182 181) M(10) UV(0.62500 0.75000 0.62500 0.50000 0.50000 0.50000 0.50000 0.75000)
		4 V(1164 189 175 1166) M(10) UV(0.62500 0.25000 0.50000 0.25000 0.50000 0.25000 0.62500 0.25000)
		4 V(1164 1166 176 191) M(10) UV(0.62500 0.25000 0.62500 0.25000 0.75000 0.25000 0.75000 0.25000)
		4 V(1165 184 172 1167) M(10) UV(0.62500 0.50000 0.75000 0.50000 0.75000 0.50000 0.62500 0.50000)
		4 V(1165 1167 171 182) M(10) UV(0.62500 0.50000 0.62500 0.50000 0.50000 0.50000 0.50000 0.50000)
		4 V(1166 175 171 1167) M(10) UV(0.62500 0.25000 0.50000 0.25000 0.50000 0.50000 0.62500 0.50000)
		4 V(1166 1167 172 176) M(10) UV(0.62500 0.25000 0.62500 0.50000 0.75000 0.50000 0.75000 0.25000)
		4 V(1168 163 167 1169) M(10) UV(0.37500 1.00000 0.50000 1.00000 0.50000 0.75000 0.37500 0.75000)
		4 V(1168 1169 166 162) M(10) UV(0.37500 1.00000 0.37500 0.75000 0.25000 0.75000 0.25000 1.00000)
		4 V(1168 162 188 1170) M(10) UV(0.37500 0.00000 0.25000 0.00000 0.25000 0.00000 0.37500 0.00000)
		4 V(1168 1170 190 163) M(10) UV(0.37500 0.00000 0.37500 0.00000 0.50000 0.00000 0.50000 0.00000)
		4 V(1169 167 181 1171) M(10) UV(0.37500 0.75000 0.50000 0.75000 0.50000 0.75000 0.37500 0.75000)
		4 V(1169 1171 178 166) M(10) UV(0.37500 0.75000 0.37500 0.75000 0.25000 0.75000 0.25000 0.75000)
		4 V(1170 188 186 1172) M(10) UV(0.37500 0.00000 0.25000 0.00000 0.25000 0.25000 0.37500 0.25000)
		4 V(1170 1172 189 190) M(10) UV(0.37500 0.00000 0.37500 0.25000 0.50000 0.25000 0.50000 0.00000)
		4 V(1171 181 182 1173) M(10) UV(0.37500 0.75000 0.50000 0.75000 0.50000 0.50000 0.37500 0.50000)
		4 V(1171 1173 180 178) M(10) UV(0.37500 0.75000 0.37500 0.50000 0.25000 0.50000 0.25000 0.75000)
		4 V(1172 186 174 1174) M(10) UV(0.37500 0.25000 0.25000 0.25000 0.25000 0.25000 0.37500 0.25000)
		4 V(1172 1174 175 189) M(10) UV(0.37500 0.25000 0.37500 0.25000 0.50000 0.25000 0.50000 0.25000)
		4 V(1173 182 171 1175) M(10) UV(0.37500 0.50000 0.50000 0.50000 0.50000 0.50000 0.37500 0.50000)
		4 V(1173 1175 170 180) M(10) UV(0.37500 0.50000 0.37500 0.50000 0.25000 0.50000 0.25000 0.50000)
		4 V(1174 174 170 1175) M(10) UV(0.37500 0.25000 0.25000 0.25000 0.25000 0.50000 0.37500 0.50000)
		4 V(1174 1175 171 175) M(10) UV(0.37500 0.25000 0.37500 0.50000 0.50000 0.50000 0.50000 0.25000)
		4 V(1176 162 166 1177) M(10) UV(0.12500 1.00000 0.25000 1.00000 0.25000 0.75000 0.12500 0.75000)
		4 V(1176 1177 165 161) M(10) UV(0.12500 1.00000 0.12500 0.75000 0.00000 0.75000 0.00000 1.00000)
		4 V(1176 161 187 1178) M(10) UV(0.12500 0.00000 0.00000 0.00000 0.00000 0.00000 0.12500 0.00000)
		4 V(1176 1178 188 162) M(10) UV(0.12500 0.00000 0.12500 0.00000 0.25000 0.00000 0.25000 0.00000)
		4 V(1177 166 178 1179) M(10) UV(0.12500 0.75000 0.25000 0.75000 0.25000 0.75000 0.12500 0.75000)
		4 V(1177 1179 177 165) M(10) UV(0.12500 0.75000 0.12500 0.75000 0.00000 0.75000 0.00000 0.75000)
		4 V(1178 187 185 1180) M(10) UV(0.12500 0.00000 0.00000 0.00000 0.00000 0.25000 0.12500 0.25000)
		4 V(1178 1180 186 188) M(10) UV(0.12500 0.00000 0.12500 0.25000 0.25000 0.25000 0.25000 0.00000)
		4 V(1179 178 180 1181) M(10) UV(0.12500 0.75000 0.25000 0.75000 0.25000 0.50000 0.12500 0.50000)
		4 V(1179 1181 179 177) M(10) UV(0.12500 0.75000 0.12500 0.50000 0.00000 0.50000 0.00000 0.75000)
		4 V(1180 185 173 1182) M(10) UV(0.12500 0.25000 0.00000 0.25000 0.00000 0.25000 0.12500 0.25000)
		4 V(1180 1182 174 186) M(10) UV(0.12500 0.25000 0.12500 0.25000 0.25000 0.25000 0.25000 0.25000)
		4 V(1181 180 170 1183) M(10) UV(0.12500 0.50000 0.25000 0.50000 0.25000 0.50000 0.12500 0.50000)
		4 V(1181 1183 169 179) M(10) UV(0.12500 0.50000 0.12500 0.50000 0.00000 0.50000 0.00000 0.50000)
		4 V(1182 173 169 1183) M(10) UV(0.12500 0.25000 0.00000 0.25000 0.00000 0.50000 0.12500 0.50000)
		4 V(1182 1183 170 174) M(10) UV(0.12500 0.25000 0.12500 0.50000 0.25000 0.50000 0.25000 0.25000)
	}
}
Eof
